File: data_dir/600_A_immertest4/600_A_08_CP_C04.mpt
EC-Lab ASCII FILE
Nb header lines : 57

Chronopotentiometry

Run on channel : 4 (SN 13148)
User :
Electrode connection : standard
Potential control : Ewe
Ewe ctrl range : min = -1.00 V, max = 1.00 V
Ewe,I filtering : 5 Hz
Safety Limits :
	Do not start on E overload
Channel : Floating
Acquisition started on : 07/01/2024 16:51:31.465
Loaded Setting File :  C:\Users\mAtsuhitA\Desktop\Oyafuso\20240624_???????4\1540_A.mps
Saved on :
	File : 600_A_08_CP_C04.mpr
	Directory : C:\Users\mAtsuhitA\Desktop\Oyafuso\20240624_???????4\600_A\
	Host : 192.109.209.100
Device : VSP-300 (SN 0960)
Address : USB
EC-Lab for windows v11.50 (software)
Internet server v11.50 (firmware)
Command interpretor v11.50 (firmware)
Electrode material :
Initial state :
Electrolyte :
Comments :
Cable : standard
Electrode surface area : 0.001 cm2
Characteristic mass : 0.001 g
Equivalent Weight : 0.000 g/eq.
Density : 0.000 g/cm3
Volume (V) : 0.001 cm3
Text export
   Mode : Standard
   Time format : Elapsed
Cycle Definition : Charge/Discharge alternance
Is                  200.000
unit Is             nA
vs.                 <None>
ts (h:m:s)          1000:40:0.0000
EM (V)              0.000
dQM                 200.133
unit dQM            uA.h
record              Ewe
dEs (mV)            10.00
dts (s)             10.0000
E range min (V)     -1.000
E range max (V)     1.000
I Range             1 uA
Bandwidth           8
goto Ns'            0
nc cycles           0

mode	ox/red	error	control changes	Ns changes	counter inc.	Ns	time/s	control/mA	Ewe/V	I/mA	dQ/C	(Q-Qo)/C	half cycle	Q charge/discharge/mA.h	I Range	Energy charge/W.h	Energy discharge/W.h	Capacitance charge/uF	Capacitance discharge/uF	step time/s	Q discharge/mA.h	Q charge/mA.h	Capacity/mA.h	Efficiency/%	cycle number	P/W
1	1	0	1	0	0	0	261881	0.0002	-0.245828	-8.98237e-07	0.0000000E+000	0.0000000E+000	0	0.000000000000000E+000	43	0.000000000000000E+000	0.000000000000000E+000	0.000000000000000E+000	0.000000000000000E+000	261881	0.000000000000000E+000	0.000000000000000E+000	0.000000000000000E+000	0.0000000E+000	0.000000000000000E+000	2.20812e-10
1	1	0	1	0	0	0	263383	0.0002	-0.192328	0.000199699	0.00030004	0.00030004	0	8.33444e-05	43	1.66019e-08	0.000000000000000E+000	6916.09	0.000000000000000E+000	263383	0.000000000000000E+000	8.33444e-05	8.33444e-05	0.0000000E+000	0.000000000000000E+000	-3.84078e-08
1	1	0	1	0	0	0	264913	0.0002	-0.186968	0.000199749	0.000605668	0.000605668	0	0.000168241	43	3.26522e-08	0.000000000000000E+000	12425.6	0.000000000000000E+000	264913	0.000000000000000E+000	0.000168241	0.000168241	0.0000000E+000	0.000000000000000E+000	-3.73466e-08
1	1	0	1	0	0	0	266443	0.0002	-0.184001	0.000199726	0.000911283	0.000911283	0	0.000253134	43	4.83975e-08	0.000000000000000E+000	17622.9	0.000000000000000E+000	266443	0.000000000000000E+000	0.000253134	0.000253134	0.0000000E+000	0.000000000000000E+000	-3.67498e-08
1	1	0	1	0	0	0	267973	0.0002	-0.185487	0.000199665	0.0012168	0.0012168	0	0.000338	43	6.4068e-08	0.000000000000000E+000	24227.1	0.000000000000000E+000	267973	0.000000000000000E+000	0.000338	0.000338	0.0000000E+000	0.000000000000000E+000	-3.70351e-08
1	1	0	1	0	0	0	269503	0.0002	-0.188873	0.000199661	0.00152226	0.00152226	0	0.00042285	43	7.99436e-08	0.000000000000000E+000	32500.4	0.000000000000000E+000	269503	0.000000000000000E+000	0.00042285	0.00042285	0.0000000E+000	0.000000000000000E+000	-3.77106e-08
1	1	0	1	0	0	0	271033	0.0002	-0.191565	0.000199615	0.0018277	0.0018277	0	0.000507695	43	9.60845e-08	0.000000000000000E+000	41400.8	0.000000000000000E+000	271033	0.000000000000000E+000	0.000507695	0.000507695	0.0000000E+000	0.000000000000000E+000	-3.82392e-08
1	1	0	1	0	0	0	272563	0.0002	-0.192439	0.000199588	0.00213313	0.00213313	0	0.000592536	43	1.12365e-07	0.000000000000000E+000	49295.7	0.000000000000000E+000	272563	0.000000000000000E+000	0.000592536	0.000592536	0.0000000E+000	0.000000000000000E+000	-3.84086e-08
1	1	0	1	0	0	0	274093	0.0002	-0.193283	0.000199634	0.00243856	0.00243856	0	0.000677377	43	1.28731e-07	0.000000000000000E+000	57474.6	0.000000000000000E+000	274093	0.000000000000000E+000	0.000677377	0.000677377	0.0000000E+000	0.000000000000000E+000	-3.85859e-08
1	1	0	1	0	0	0	275623	0.0002	-0.194092	0.000199596	0.00274397	0.00274397	0	0.000762215	43	1.45161e-07	0.000000000000000E+000	65930.8	0.000000000000000E+000	275623	0.000000000000000E+000	0.000762215	0.000762215	0.0000000E+000	0.000000000000000E+000	-3.874e-08
1	1	0	1	0	0	0	277153	0.0002	-0.194634	0.0001996	0.00304938	0.00304938	0	0.000847049	43	1.6167e-07	0.000000000000000E+000	74235.9	0.000000000000000E+000	277153	0.000000000000000E+000	0.000847049	0.000847049	0.0000000E+000	0.000000000000000E+000	-3.8849e-08
1	1	0	1	0	0	0	278683	0.0002	-0.19426	0.000199611	0.00335477	0.00335477	0	0.000931881	43	1.78154e-07	0.000000000000000E+000	80933.5	0.000000000000000E+000	278683	0.000000000000000E+000	0.000931881	0.000931881	0.0000000E+000	0.000000000000000E+000	-3.87765e-08
1	1	0	1	0	0	0	280213	0.0002	-0.193252	0.000199577	0.00366017	0.00366017	0	0.00101671	43	1.94572e-07	0.000000000000000E+000	86204.9	0.000000000000000E+000	280213	0.000000000000000E+000	0.00101671	0.00101671	0.0000000E+000	0.000000000000000E+000	-3.85687e-08
1	1	0	1	0	0	0	281743	0.0002	-0.193008	0.000199565	0.00396555	0.00396555	0	0.00110154	43	2.10969e-07	0.000000000000000E+000	92862.8	0.000000000000000E+000	281743	0.000000000000000E+000	0.00110154	0.00110154	0.0000000E+000	0.000000000000000E+000	-3.85177e-08
1	1	0	1	0	0	0	283273	0.0002	-0.192683	0.000199615	0.00427092	0.00427092	0	0.00118637	43	2.27363e-07	0.000000000000000E+000	99259.5	0.000000000000000E+000	283273	0.000000000000000E+000	0.00118637	0.00118637	0.0000000E+000	0.000000000000000E+000	-3.84625e-08
1	1	0	1	0	0	0	284803	0.0002	-0.192748	0.0001996	0.00457629	0.00457629	0	0.00127119	43	2.43705e-07	0.000000000000000E+000	106517	0.000000000000000E+000	284803	0.000000000000000E+000	0.00127119	0.00127119	0.0000000E+000	0.000000000000000E+000	-3.84725e-08
1	1	0	1	0	0	0	286333	0.0002	-0.191901	0.000199588	0.00488167	0.00488167	0	0.00135602	43	2.60033e-07	0.000000000000000E+000	111427	0.000000000000000E+000	286333	0.000000000000000E+000	0.00135602	0.00135602	0.0000000E+000	0.000000000000000E+000	-3.83012e-08
1	1	0	1	0	0	0	287863	0.0002	-0.190458	0.0001996	0.00518705	0.00518705	0	0.00144085	43	2.76276e-07	0.000000000000000E+000	114621	0.000000000000000E+000	287863	0.000000000000000E+000	0.00144085	0.00144085	0.0000000E+000	0.000000000000000E+000	-3.80153e-08
1	1	0	1	0	0	0	289393	0.0002	-0.188892	0.000199607	0.00549242	0.00549242	0	0.00152567	43	2.92388e-07	0.000000000000000E+000	117312	0.000000000000000E+000	289393	0.000000000000000E+000	0.00152567	0.00152567	0.0000000E+000	0.000000000000000E+000	-3.77043e-08
1	1	0	1	0	0	0	290923	0.0002	-0.188155	0.000199569	0.0057978	0.0057978	0	0.0016105	43	3.08381e-07	0.000000000000000E+000	121915	0.000000000000000E+000	290923	0.000000000000000E+000	0.0016105	0.0016105	0.0000000E+000	0.000000000000000E+000	-3.755e-08
1	1	0	1	0	0	0	292453	0.0002	-0.187583	0.000199615	0.00610318	0.00610318	0	0.00169533	43	3.24319e-07	0.000000000000000E+000	126809	0.000000000000000E+000	292453	0.000000000000000E+000	0.00169533	0.00169533	0.0000000E+000	0.000000000000000E+000	-3.74443e-08
1	1	0	1	0	0	0	293983	0.0002	-0.18659	0.0001996	0.00640855	0.00640855	0	0.00178015	43	3.40196e-07	0.000000000000000E+000	130464	0.000000000000000E+000	293983	0.000000000000000E+000	0.00178015	0.00178015	0.0000000E+000	0.000000000000000E+000	-3.72433e-08
1	1	0	1	0	0	0	295513	0.0002	-0.185872	0.000199535	0.00671392	0.00671392	0	0.00186498	43	3.55971e-07	0.000000000000000E+000	134712	0.000000000000000E+000	295513	0.000000000000000E+000	0.00186498	0.00186498	0.0000000E+000	0.000000000000000E+000	-3.7088e-08
1	1	0	1	0	0	0	297043	0.0002	-0.184734	0.000199611	0.00701929	0.00701929	0	0.0019498	43	3.71687e-07	0.000000000000000E+000	137695	0.000000000000000E+000	297043	0.000000000000000E+000	0.0019498	0.0019498	0.0000000E+000	0.000000000000000E+000	-3.68751e-08
1	1	0	1	0	0	0	298573	0.0002	-0.183787	0.000199581	0.00732466	0.00732466	0	0.00203463	43	3.87316e-07	0.000000000000000E+000	141066	0.000000000000000E+000	298573	0.000000000000000E+000	0.00203463	0.00203463	0.0000000E+000	0.000000000000000E+000	-3.66804e-08
1	1	0	1	0	0	0	300103	0.0002	-0.18231	0.000199565	0.00763004	0.00763004	0	0.00211945	43	4.0285e-07	0.000000000000000E+000	142881	0.000000000000000E+000	300103	0.000000000000000E+000	0.00211945	0.00211945	0.0000000E+000	0.000000000000000E+000	-3.63828e-08
1	1	0	1	0	0	0	301633	0.0002	-0.181325	0.000199604	0.00793541	0.00793541	0	0.00220428	43	4.18287e-07	0.000000000000000E+000	145908	0.000000000000000E+000	301633	0.000000000000000E+000	0.00220428	0.00220428	0.0000000E+000	0.000000000000000E+000	-3.61931e-08
1	1	0	1	0	0	0	303163	0.0002	-0.178591	0.000199592	0.00824078	0.00824078	0	0.00228911	43	4.33586e-07	0.000000000000000E+000	144271	0.000000000000000E+000	303163	0.000000000000000E+000	0.00228911	0.00228911	0.0000000E+000	0.000000000000000E+000	-3.56454e-08
1	1	0	1	0	0	0	304693	0.0002	-0.176266	0.000199611	0.00854614	0.00854614	0	0.00237393	43	4.48635e-07	0.000000000000000E+000	143765	0.000000000000000E+000	304693	0.000000000000000E+000	0.00237393	0.00237393	0.0000000E+000	0.000000000000000E+000	-3.51847e-08
1	1	0	1	0	0	0	306223	0.0002	-0.173502	0.00019952	0.00885149	0.00885149	0	0.00245875	43	4.6348e-07	0.000000000000000E+000	142285	0.000000000000000E+000	306223	0.000000000000000E+000	0.00245875	0.00245875	0.0000000E+000	0.000000000000000E+000	-3.4617e-08
1	1	0	1	0	0	0	307754	0.0002	-0.171684	0.000199546	0.00915683	0.00915683	0	0.00254356	43	4.78114e-07	0.000000000000000E+000	143015	0.000000000000000E+000	307754	0.000000000000000E+000	0.00254356	0.00254356	0.0000000E+000	0.000000000000000E+000	-3.4259e-08
1	1	0	1	0	0	0	309284	0.0002	-0.169562	0.000199554	0.00946216	0.00946216	0	0.00262838	43	4.92587e-07	0.000000000000000E+000	143042	0.000000000000000E+000	309284	0.000000000000000E+000	0.00262838	0.00262838	0.0000000E+000	0.000000000000000E+000	-3.38367e-08
1	1	0	1	0	0	0	310814	0.0002	-0.167572	0.000199516	0.0097675	0.0097675	0	0.00271319	43	5.06876e-07	0.000000000000000E+000	143347	0.000000000000000E+000	310814	0.000000000000000E+000	0.00271319	0.00271319	0.0000000E+000	0.000000000000000E+000	-3.34333e-08
1	1	0	1	0	0	0	312344	0.0002	-0.165885	0.000199558	0.0100728	0.0100728	0	0.00279801	43	5.21014e-07	0.000000000000000E+000	144255	0.000000000000000E+000	312344	0.000000000000000E+000	0.00279801	0.00279801	0.0000000E+000	0.000000000000000E+000	-3.31036e-08
1	1	0	1	0	0	0	313874	0.0002	-0.165675	0.000199573	0.0103782	0.0103782	0	0.00288283	43	5.3505e-07	0.000000000000000E+000	148182	0.000000000000000E+000	313874	0.000000000000000E+000	0.00288283	0.00288283	0.0000000E+000	0.000000000000000E+000	-3.30642e-08
1	1	0	1	0	0	0	315404	0.0002	-0.163926	0.000199565	0.0106835	0.0106835	0	0.00296764	43	5.49024e-07	0.000000000000000E+000	148826	0.000000000000000E+000	315404	0.000000000000000E+000	0.00296764	0.00296764	0.0000000E+000	0.000000000000000E+000	-3.2714e-08
1	1	0	1	0	0	0	316934	0.0002	-0.162403	0.000199573	0.0109888	0.0109888	0	0.00305245	43	5.62852e-07	0.000000000000000E+000	149898	0.000000000000000E+000	316934	0.000000000000000E+000	0.00305245	0.00305245	0.0000000E+000	0.000000000000000E+000	-3.24112e-08
1	1	0	1	0	0	0	318464	0.0002	-0.158871	0.000199615	0.0112942	0.0112942	0	0.00313727	43	5.76488e-07	0.000000000000000E+000	146983	0.000000000000000E+000	318464	0.000000000000000E+000	0.00313727	0.00313727	0.0000000E+000	0.000000000000000E+000	-3.17131e-08
1	1	0	1	0	0	0	319994	0.0002	-0.144886	0.00019973	0.0115997	0.0115997	0	0.00322214	43	5.89405e-07	0.000000000000000E+000	127714	0.000000000000000E+000	319994	0.000000000000000E+000	0.00322214	0.00322214	0.0000000E+000	0.000000000000000E+000	-2.8938e-08
1	1	0	1	0	0	0	321220	0.0002	0.000805867	0.000199665	0.0118446	0.0118446	0	0.00329017	43	5.99023e-07	0.000000000000000E+000	50079.3	0.000000000000000E+000	321220	0.000000000000000E+000	0.00329017	0.00329017	0.0000000E+000	0.000000000000000E+000	1.60903e-10