File: data_dir/600_A_immertest4/600_A_07_OCV_C04.mpt
EC-Lab ASCII FILE
Nb header lines : 48

Open Circuit Voltage

Run on channel : 4 (SN 13148)
User :
Electrode connection : standard
Potential control : Ewe
Ewe ctrl range : min = -1.00 V, max = 1.00 V
Ewe,I filtering : 5 Hz
Safety Limits :
	Do not start on E overload
Channel : Floating
Acquisition started on : 07/01/2024 16:51:31.465
Loaded Setting File :  C:\Users\mAtsuhitA\Desktop\Oyafuso\20240624_???????4\1540_A.mps
Saved on :
	File : 600_A_07_OCV_C04.mpr
	Directory : C:\Users\mAtsuhitA\Desktop\Oyafuso\20240624_???????4\600_A\
	Host : 192.109.209.100
Device : VSP-300 (SN 0960)
Address : USB
EC-Lab for windows v11.50 (software)
Internet server v11.50 (firmware)
Command interpretor v11.50 (firmware)
Electrode material :
Initial state :
Electrolyte :
Comments :
Cable : standard
Electrode surface area : 0.001 cm2
Characteristic mass : 0.001 g
Equivalent Weight : 0.000 g/eq.
Density : 0.000 g/cm3
Volume (V) : 0.001 cm3
Text export
   Mode : Standard
   Time format : Elapsed
Cycle Definition : Charge/Discharge alternance
tR (h:m:s)          0:10:0.0000
dER/dt (mV/h)       0.0
record              Ewe
dER (mV)            10.00
dtR (s)             30.0000
E range min (V)     -1.000
E range max (V)     1.000

mode	error	time/s	Ewe/V
3	0	261281	-0.249126
3	0	261311	-0.246162
3	0	261341	-0.244983
3	0	261371	-0.244505
3	0	261401	-0.244356
3	0	261431	-0.244356
3	0	261461	-0.244341
3	0	261491	-0.244433
3	0	261521	-0.244524
3	0	261551	-0.244666
3	0	261581	-0.244818
3	0	261611	-0.244948
3	0	261641	-0.245162
3	0	261671	-0.245334
3	0	261701	-0.245494
3	0	261731	-0.245765
3	0	261761	-0.245723
3	0	261791	-0.245796
3	0	261821	-0.245834
3	0	261851	-0.24583
3	0	261881	-0.245895