File: data_dir/600_A_immertest4/600_A_03_OCV_C04.mpt
EC-Lab ASCII FILE
Nb header lines : 48

Open Circuit Voltage

Run on channel : 4 (SN 13148)
User :
Electrode connection : standard
Potential control : Ewe
Ewe ctrl range : min = -1.00 V, max = 1.00 V
Ewe,I filtering : 5 Hz
Safety Limits :
	Do not start on E overload
Channel : Floating
Acquisition started on : 07/01/2024 16:51:31.465
Loaded Setting File :  C:\Users\mAtsuhitA\Desktop\Oyafuso\20240624_???????4\1540_A.mps
Saved on :
	File : 600_A_03_OCV_C04.mpr
	Directory : C:\Users\mAtsuhitA\Desktop\Oyafuso\20240624_???????4\600_A\
	Host : 192.109.209.100
Device : VSP-300 (SN 0960)
Address : USB
EC-Lab for windows v11.50 (software)
Internet server v11.50 (firmware)
Command interpretor v11.50 (firmware)
Electrode material :
Initial state :
Electrolyte :
Comments :
Cable : standard
Electrode surface area : 0.001 cm2
Characteristic mass : 0.001 g
Equivalent Weight : 0.000 g/eq.
Density : 0.000 g/cm3
Volume (V) : 0.001 cm3
Text export
   Mode : Standard
   Time format : Elapsed
Cycle Definition : Charge/Discharge alternance
tR (h:m:s)          0:10:0.0000
dER/dt (mV/h)       0.0
record              Ewe
dER (mV)            10.00
dtR (s)             30.0000
E range min (V)     -1.000
E range max (V)     1.000

mode	error	time/s	Ewe/V
3	0	7377.13	-0.244403
3	0	7377.32	-0.234354
3	0	7377.7	-0.224341
3	0	7378.55	-0.214335
3	0	7386.39	-0.204332
3	0	7416.39	-0.200384
3	0	7446.39	-0.198578
3	0	7476.39	-0.197452
3	0	7506.39	-0.196669
3	0	7536.39	-0.196139
3	0	7566.39	-0.195688
3	0	7596.39	-0.195337
3	0	7626.39	-0.195161
3	0	7656.39	-0.194925
3	0	7686.39	-0.194818
3	0	7716.39	-0.194745
3	0	7746.39	-0.194646
3	0	7776.39	-0.194646
3	0	7806.39	-0.194627
3	0	7836.39	-0.19457
3	0	7866.39	-0.194478
3	0	7896.39	-0.194421
3	0	7926.39	-0.194382
3	0	7956.39	-0.194302
3	0	7977.13	-0.19426