File: data_dir/600_A_immertest4/600_A_05_OCV_C04.mpt
EC-Lab ASCII FILE
Nb header lines : 48

Open Circuit Voltage

Run on channel : 4 (SN 13148)
User :
Electrode connection : standard
Potential control : Ewe
Ewe ctrl range : min = -1.00 V, max = 1.00 V
Ewe,I filtering : 5 Hz
Safety Limits :
	Do not start on E overload
Channel : Floating
Acquisition started on : 07/01/2024 16:51:31.465
Loaded Setting File :  C:\Users\mAtsuhitA\Desktop\Oyafuso\20240624_???????4\1540_A.mps
Saved on :
	File : 600_A_05_OCV_C04.mpr
	Directory : C:\Users\mAtsuhitA\Desktop\Oyafuso\20240624_???????4\600_A\
	Host : 192.109.209.100
Device : VSP-300 (SN 0960)
Address : USB
EC-Lab for windows v11.50 (software)
Internet server v11.50 (firmware)
Command interpretor v11.50 (firmware)
Electrode material :
Initial state :
Electrolyte :
Comments :
Cable : standard
Electrode surface area : 0.001 cm2
Characteristic mass : 0.001 g
Equivalent Weight : 0.000 g/eq.
Density : 0.000 g/cm3
Volume (V) : 0.001 cm3
Text export
   Mode : Standard
   Time format : Elapsed
Cycle Definition : Charge/Discharge alternance
tR (h:m:s)          5:00:0.0000
dER/dt (mV/h)       0.0
record              Ewe
dER (mV)            10.00
dtR (s)             30.0000
E range min (V)     -1.000
E range max (V)     1.000

mode	error	time/s	Ewe/V
3	0	243101	-0.00170115
3	0	243101	-0.0317597
3	0	243101	-0.0618554
3	0	243102	-0.0919032
3	0	243103	-0.121943
3	0	243105	-0.151961
3	0	243114	-0.181978
3	0	243204	-0.197093
3	0	243294	-0.20227
3	0	243384	-0.206096
3	0	243474	-0.208662
3	0	243564	-0.210735
3	0	243654	-0.212655
3	0	243744	-0.214251
3	0	243834	-0.215618
3	0	243924	-0.217065
3	0	244014	-0.217963
3	0	244104	-0.219028
3	0	244194	-0.22015
3	0	244284	-0.220883
3	0	244374	-0.221632
3	0	244464	-0.222334
3	0	244554	-0.223105
3	0	244644	-0.223873
3	0	244734	-0.224407
3	0	244824	-0.22514
3	0	244914	-0.225992
3	0	245004	-0.226694
3	0	245094	-0.227229
3	0	245184	-0.227844
3	0	245274	-0.228225
3	0	245364	-0.2285
3	0	245454	-0.229062
3	0	245544	-0.229428
3	0	245634	-0.229955
3	0	245724	-0.23018
3	0	245814	-0.230696
3	0	245904	-0.230971
3	0	245994	-0.23149
3	0	246084	-0.231776
3	0	246174	-0.232036
3	0	246264	-0.23225
3	0	246354	-0.232349
3	0	246444	-0.232689
3	0	246534	-0.233059
3	0	246624	-0.233296
3	0	246714	-0.233681
3	0	246804	-0.234124
3	0	246894	-0.23425
3	0	246984	-0.234525
3	0	247074	-0.234892
3	0	247164	-0.235044
3	0	247254	-0.235251
3	0	247344	-0.235606
3	0	247434	-0.235751
3	0	247524	-0.236106
3	0	247614	-0.236159
3	0	247704	-0.236621
3	0	247794	-0.236736
3	0	247884	-0.23685
3	0	247974	-0.237095
3	0	248064	-0.237236
3	0	248154	-0.237713
3	0	248244	-0.237713
3	0	248334	-0.23782
3	0	248424	-0.238019
3	0	248514	-0.23819
3	0	248604	-0.238358
3	0	248694	-0.238687
3	0	248784	-0.238603
3	0	248874	-0.238832
3	0	248964	-0.238908
3	0	249054	-0.239114
3	0	249144	-0.239301
3	0	249234	-0.239424
3	0	249324	-0.239595
3	0	249414	-0.239553
3	0	249504	-0.239702
3	0	249594	-0.239924
3	0	249684	-0.240099
3	0	249774	-0.240275
3	0	249864	-0.240317
3	0	249954	-0.2405
3	0	250044	-0.240993
3	0	250134	-0.240905
3	0	250224	-0.241172
3	0	250314	-0.241111
3	0	250404	-0.241256
3	0	250494	-0.241417
3	0	250584	-0.241745
3	0	250674	-0.241737
3	0	250764	-0.243196
3	0	250854	-0.243314
3	0	250944	-0.243299
3	0	251034	-0.243253
3	0	251124	-0.243219
3	0	251214	-0.243123
3	0	251304	-0.243089
3	0	251394	-0.243207
3	0	251484	-0.243391
3	0	251574	-0.243295
3	0	251664	-0.24336
3	0	251754	-0.243093
3	0	251844	-0.243097
3	0	251934	-0.243219
3	0	252024	-0.243043
3	0	252114	-0.242982
3	0	252204	-0.243005
3	0	252294	-0.243116
3	0	252384	-0.243177
3	0	252474	-0.243391
3	0	252564	-0.243509
3	0	252654	-0.243513
3	0	252744	-0.243734
3	0	252834	-0.243585
3	0	252924	-0.243811
3	0	253014	-0.243604
3	0	253104	-0.243772
3	0	253194	-0.24383
3	0	253284	-0.243837
3	0	253374	-0.244036
3	0	253464	-0.244169
3	0	253554	-0.243952
3	0	253644	-0.244032
3	0	253734	-0.244124
3	0	253824	-0.244284
3	0	253914	-0.244055
3	0	254004	-0.244059
3	0	254094	-0.24446
3	0	254184	-0.244574
3	0	254274	-0.244658
3	0	254364	-0.24483
3	0	254454	-0.244803
3	0	254544	-0.244822
3	0	254634	-0.244742
3	0	254724	-0.244734
3	0	254814	-0.244757
3	0	254904	-0.244734
3	0	254994	-0.244811
3	0	255084	-0.244967
3	0	255174	-0.24504
3	0	255264	-0.245021
3	0	255354	-0.245242
3	0	255444	-0.245216
3	0	255534	-0.245261
3	0	255624	-0.245376
3	0	255714	-0.245708
3	0	255804	-0.245739
3	0	255894	-0.245876
3	0	255984	-0.246036
3	0	256074	-0.246124
3	0	256164	-0.246208
3	0	256254	-0.246304
3	0	256344	-0.246208
3	0	256434	-0.246422
3	0	256524	-0.246304
3	0	256614	-0.246254
3	0	256704	-0.246456
3	0	256794	-0.246437
3	0	256884	-0.246552
3	0	256974	-0.246609
3	0	257064	-0.246666
3	0	257154	-0.246808
3	0	257244	-0.246995
3	0	257334	-0.246685
3	0	257424	-0.24701
3	0	257514	-0.247231
3	0	257604	-0.247094
3	0	257694	-0.247105
3	0	257784	-0.247174
3	0	257874	-0.247094
3	0	257964	-0.247228
3	0	258054	-0.247304
3	0	258144	-0.247533
3	0	258234	-0.247911
3	0	258324	-0.248029
3	0	258414	-0.248102
3	0	258504	-0.248377
3	0	258594	-0.248495
3	0	258684	-0.248373
3	0	258774	-0.248526
3	0	258864	-0.248507
3	0	258954	-0.248617
3	0	259044	-0.248709
3	0	259134	-0.248583
3	0	259224	-0.248782
3	0	259314	-0.248495
3	0	259404	-0.248759
3	0	259494	-0.248877
3	0	259584	-0.249106
3	0	259674	-0.249274
3	0	259764	-0.249259
3	0	259854	-0.249312
3	0	259944	-0.249335
3	0	260034	-0.24974
3	0	260124	-0.249812
3	0	260214	-0.249812
3	0	260304	-0.249874
3	0	260394	-0.249786
3	0	260484	-0.249713
3	0	260574	-0.249622
3	0	260664	-0.249671
3	0	260754	-0.249576
3	0	260844	-0.24953
3	0	260934	-0.249816
3	0	261024	-0.24966
3	0	261101	-0.249614