File: data_dir/600_B_immertest4/600_B_08_CP_C03.mpt
EC-Lab ASCII FILE
Nb header lines : 57

Chronopotentiometry

Run on channel : 3 (SN 13150)
User :
Electrode connection : standard
Potential control : Ewe
Ewe ctrl range : min = -1.00 V, max = 1.00 V
Ewe,I filtering : 5 Hz
Safety Limits :
	Do not start on E overload
Channel : Floating
Acquisition started on : 07/01/2024 16:51:05.709
Loaded Setting File :  C:\Users\mAtsuhitA\Desktop\Oyafuso\20240624_???????4\1540_A.mps
Saved on :
	File : 600_B_08_CP_C03.mpr
	Directory : C:\Users\mAtsuhitA\Desktop\Oyafuso\20240624_???????4\600_B\
	Host : 192.109.209.100
Device : VSP-300 (SN 0834)
Address : 192.109.209.128
EC-Lab for windows v11.50 (software)
Internet server v11.50 (firmware)
Command interpretor v11.50 (firmware)
Electrode material :
Initial state :
Electrolyte :
Comments :
Cable : standard
Electrode surface area : 0.001 cm2
Characteristic mass : 0.001 g
Equivalent Weight : 0.000 g/eq.
Density : 0.000 g/cm3
Volume (V) : 0.001 cm3
Text export
   Mode : Standard
   Time format : Elapsed
Cycle Definition : Charge/Discharge alternance
Is                  200.000
unit Is             nA
vs.                 <None>
ts (h:m:s)          1000:40:0.0000
EM (V)              0.000
dQM                 200.133
unit dQM            uA.h
record              Ewe
dEs (mV)            10.00
dts (s)             10.0000
E range min (V)     -1.000
E range max (V)     1.000
I Range             1 uA
Bandwidth           8
goto Ns'            0
nc cycles           0

mode	ox/red	error	control changes	Ns changes	counter inc.	Ns	time/s	control/mA	Ewe/V	I/mA	dQ/C	(Q-Qo)/C	half cycle	Q charge/discharge/mA.h	I Range	Energy charge/W.h	Energy discharge/W.h	Capacitance charge/uF	Capacitance discharge/uF	step time/s	Q discharge/mA.h	Q charge/mA.h	Capacity/mA.h	Efficiency/%	cycle number	P/W
1	1	0	1	0	0	0	255282	0.0002	-0.243187	1.30992e-07	0.0000000E+000	0.0000000E+000	0	0.000000000000000E+000	43	0.000000000000000E+000	0.000000000000000E+000	0.000000000000000E+000	0.000000000000000E+000	255282	0.000000000000000E+000	0.000000000000000E+000	0.000000000000000E+000	0.0000000E+000	0.000000000000000E+000	-3.18556e-11
1	1	0	1	0	0	0	255381	0.0002	-0.17561	0.000199971	1.97639e-05	1.97639e-05	0	5.48998e-06	43	9.86913e-10	0.000000000000000E+000	343.867	0.000000000000000E+000	255381	0.000000000000000E+000	5.48998e-06	5.48998e-06	0.0000000E+000	0.000000000000000E+000	-3.51169e-08
1	1	0	1	0	0	0	255531	0.0002	-0.165984	0.000199986	4.97605e-05	4.97605e-05	0	1.38224e-05	43	2.41307e-09	0.000000000000000E+000	741.567	0.000000000000000E+000	255531	0.000000000000000E+000	1.38224e-05	1.38224e-05	0.0000000E+000	0.000000000000000E+000	-3.31944e-08
1	1	0	1	0	0	0	255681	0.0002	-0.156778	0.000199917	7.97566e-05	7.97566e-05	0	2.21546e-05	43	3.75827e-09	0.000000000000000E+000	1045.19	0.000000000000000E+000	255681	0.000000000000000E+000	2.21546e-05	2.21546e-05	0.0000000E+000	0.000000000000000E+000	-3.13425e-08
1	1	0	1	0	0	0	255831	0.0002	-0.146437	0.000200028	0.000109754	0.000109754	0	3.04871e-05	43	5.02021e-09	0.000000000000000E+000	1266.65	0.000000000000000E+000	255831	0.000000000000000E+000	3.04871e-05	3.04871e-05	0.0000000E+000	0.000000000000000E+000	-2.92915e-08
1	1	0	1	0	0	0	255981	0.0002	-0.136265	0.000199997	0.000139749	0.000139749	0	3.88192e-05	43	6.1992e-09	0.000000000000000E+000	1443.38	0.000000000000000E+000	255981	0.000000000000000E+000	3.88192e-05	3.88192e-05	0.0000000E+000	0.000000000000000E+000	-2.72526e-08
1	1	0	1	0	0	0	256131	0.0002	-0.125531	0.000200001	0.000169747	0.000169747	0	4.71519e-05	43	7.29198e-09	0.000000000000000E+000	1578.24	0.000000000000000E+000	256131	0.000000000000000E+000	4.71519e-05	4.71519e-05	0.0000000E+000	0.000000000000000E+000	-2.51064e-08
1	1	0	1	0	0	0	256281	0.0002	-0.114473	0.000200005	0.000199745	0.000199745	0	5.54849e-05	43	8.29287e-09	0.000000000000000E+000	1684.01	0.000000000000000E+000	256281	0.000000000000000E+000	5.54849e-05	5.54849e-05	0.0000000E+000	0.000000000000000E+000	-2.28952e-08
1	1	0	1	0	0	0	256431	0.0002	-0.106653	0.000200047	0.000229744	0.000229744	0	6.38178e-05	43	9.21252e-09	0.000000000000000E+000	1817.12	0.000000000000000E+000	256431	0.000000000000000E+000	6.38178e-05	6.38178e-05	0.0000000E+000	0.000000000000000E+000	-2.13356e-08
1	1	0	1	0	0	0	256581	0.0002	-0.0984468	0.000199955	0.000259742	0.000259742	0	7.21507e-05	43	1.006e-08	0.000000000000000E+000	1929.18	0.000000000000000E+000	256581	0.000000000000000E+000	7.21507e-05	7.21507e-05	0.0000000E+000	0.000000000000000E+000	-1.9685e-08
1	1	0	1	0	0	0	256731	0.0002	-0.0900577	0.000199997	0.000289742	0.000289742	0	8.04838e-05	43	1.08404e-08	0.000000000000000E+000	2025.77	0.000000000000000E+000	256731	0.000000000000000E+000	8.04838e-05	8.04838e-05	0.0000000E+000	0.000000000000000E+000	-1.80113e-08
1	1	0	1	0	0	0	256881	0.0002	-0.0834021	0.000200013	0.000319741	0.000319741	0	8.88168e-05	43	1.15632e-08	0.000000000000000E+000	2136.11	0.000000000000000E+000	256881	0.000000000000000E+000	8.88168e-05	8.88168e-05	0.0000000E+000	0.000000000000000E+000	-1.66815e-08
1	1	0	1	0	0	0	257031	0.0002	-0.0792514	0.000199978	0.000349737	0.000349737	0	9.71493e-05	43	1.22433e-08	0.000000000000000E+000	2273.47	0.000000000000000E+000	257031	0.000000000000000E+000	9.71493e-05	9.71493e-05	0.0000000E+000	0.000000000000000E+000	-1.58486e-08
1	1	0	1	0	0	0	257181	0.0002	-0.0739247	0.000200036	0.000379737	0.000379737	0	0.000105482	43	1.28812e-08	0.000000000000000E+000	2385.87	0.000000000000000E+000	257181	0.000000000000000E+000	0.000105482	0.000105482	0.0000000E+000	0.000000000000000E+000	-1.47876e-08
1	1	0	1	0	0	0	257331	0.0002	-0.0690103	0.000199975	0.000409736	0.000409736	0	0.000113815	43	1.34739e-08	0.000000000000000E+000	2497.24	0.000000000000000E+000	257331	0.000000000000000E+000	0.000113815	0.000113815	0.0000000E+000	0.000000000000000E+000	-1.38003e-08
1	1	0	1	0	0	0	257481	0.0002	-0.0659021	0.000199978	0.000439732	0.000439732	0	0.000122148	43	1.40322e-08	0.000000000000000E+000	2630.24	0.000000000000000E+000	257481	0.000000000000000E+000	0.000122148	0.000122148	0.0000000E+000	0.000000000000000E+000	-1.3179e-08
1	1	0	1	0	0	0	257631	0.0002	-0.0621065	0.000200013	0.000469731	0.000469731	0	0.000130481	43	1.45657e-08	0.000000000000000E+000	2747.3	0.000000000000000E+000	257631	0.000000000000000E+000	0.000130481	0.000130481	0.0000000E+000	0.000000000000000E+000	-1.24221e-08
1	1	0	1	0	0	0	257781	0.0002	-0.057681	0.000200005	0.000499729	0.000499729	0	0.000138814	43	1.50697e-08	0.000000000000000E+000	2849.01	0.000000000000000E+000	257781	0.000000000000000E+000	0.000138814	0.000138814	0.0000000E+000	0.000000000000000E+000	-1.15365e-08
1	1	0	1	0	0	0	257931	0.0002	-0.0555426	0.00019999	0.000529725	0.000529725	0	0.000147146	43	1.55411e-08	0.000000000000000E+000	2983.64	0.000000000000000E+000	257931	0.000000000000000E+000	0.000147146	0.000147146	0.0000000E+000	0.000000000000000E+000	-1.1108e-08
1	1	0	1	0	0	0	258081	0.0002	-0.0521862	0.000199929	0.00055972	0.00055972	0	0.000155478	43	1.59828e-08	0.000000000000000E+000	3094.09	0.000000000000000E+000	258081	0.000000000000000E+000	0.000155478	0.000155478	0.0000000E+000	0.000000000000000E+000	-1.04335e-08
1	1	0	1	0	0	0	258231	0.0002	-0.0485281	0.000199929	0.000589713	0.000589713	0	0.000163809	43	1.63984e-08	0.000000000000000E+000	3195.28	0.000000000000000E+000	258231	0.000000000000000E+000	0.000163809	0.000163809	0.0000000E+000	0.000000000000000E+000	-9.70216e-09
1	1	0	1	0	0	0	258381	0.0002	-0.0472413	0.000199986	0.000619707	0.000619707	0	0.000172141	43	1.67917e-08	0.000000000000000E+000	3334.55	0.000000000000000E+000	258381	0.000000000000000E+000	0.000172141	0.000172141	0.0000000E+000	0.000000000000000E+000	-9.4476e-09
1	1	0	1	0	0	0	258531	0.0002	-0.0443431	0.000199948	0.000649703	0.000649703	0	0.000180473	43	1.71722e-08	0.000000000000000E+000	3442.27	0.000000000000000E+000	258531	0.000000000000000E+000	0.000180473	0.000180473	0.0000000E+000	0.000000000000000E+000	-8.8663e-09
1	1	0	1	0	0	0	258681	0.0002	-0.0400473	0.000199948	0.0006797	0.0006797	0	0.000188806	43	1.75274e-08	0.000000000000000E+000	3521.06	0.000000000000000E+000	258681	0.000000000000000E+000	0.000188806	0.000188806	0.0000000E+000	0.000000000000000E+000	-8.00737e-09
1	1	0	1	0	0	0	258831	0.0002	-0.037909	0.000199959	0.000709695	0.000709695	0	0.000197138	43	1.78529e-08	0.000000000000000E+000	3636.17	0.000000000000000E+000	258831	0.000000000000000E+000	0.000197138	0.000197138	0.0000000E+000	0.000000000000000E+000	-7.58025e-09
1	1	0	1	0	0	0	258981	0.0002	-0.0363931	0.000199967	0.000739691	0.000739691	0	0.00020547	43	1.81567e-08	0.000000000000000E+000	3760.64	0.000000000000000E+000	258981	0.000000000000000E+000	0.00020547	0.00020547	0.0000000E+000	0.000000000000000E+000	-7.2774e-09
1	1	0	1	0	0	0	259131	0.0002	-0.0321278	0.000199975	0.000769689	0.000769689	0	0.000213802	43	1.84371e-08	0.000000000000000E+000	3830.1	0.000000000000000E+000	259131	0.000000000000000E+000	0.000213802	0.000213802	0.0000000E+000	0.000000000000000E+000	-6.42475e-09
1	1	0	1	0	0	0	259281	0.0002	-0.0289662	0.000199932	0.000799685	0.000799685	0	0.000222135	43	1.86933e-08	0.000000000000000E+000	3917.73	0.000000000000000E+000	259281	0.000000000000000E+000	0.000222135	0.000222135	0.0000000E+000	0.000000000000000E+000	-5.79127e-09
1	1	0	1	0	0	0	259431	0.0002	-0.026087	0.000199963	0.000829681	0.000829681	0	0.000230467	43	1.89232e-08	0.000000000000000E+000	4008.15	0.000000000000000E+000	259431	0.000000000000000E+000	0.000230467	0.000230467	0.0000000E+000	0.000000000000000E+000	-5.21644e-09
1	1	0	1	0	0	0	259581	0.0002	-0.0241358	0.000199929	0.000859676	0.000859676	0	0.000238799	43	1.91372e-08	0.000000000000000E+000	4114.27	0.000000000000000E+000	259581	0.000000000000000E+000	0.000238799	0.000238799	0.0000000E+000	0.000000000000000E+000	-4.82544e-09
1	1	0	1	0	0	0	259731	0.0002	-0.0214782	0.000199971	0.00088967	0.00088967	0	0.000247131	43	1.93292e-08	0.000000000000000E+000	4204.34	0.000000000000000E+000	259731	0.000000000000000E+000	0.000247131	0.000247131	0.0000000E+000	0.000000000000000E+000	-4.295e-09
1	1	0	1	0	0	0	259881	0.0002	-0.0177819	0.000199948	0.000919665	0.000919665	0	0.000255463	43	1.94918e-08	0.000000000000000E+000	4271.48	0.000000000000000E+000	259881	0.000000000000000E+000	0.000255463	0.000255463	0.0000000E+000	0.000000000000000E+000	-3.55545e-09
1	1	0	1	0	0	0	260031	0.0002	-0.0173237	0.000199952	0.000949659	0.000949659	0	0.000263794	43	1.96312e-08	0.000000000000000E+000	4401.42	0.000000000000000E+000	260031	0.000000000000000E+000	0.000263794	0.000263794	0.0000000E+000	0.000000000000000E+000	-3.4639e-09
1	1	0	1	0	0	0	260181	0.0002	-0.013658	0.000199948	0.000979654	0.000979654	0	0.000272126	43	1.97566e-08	0.000000000000000E+000	4464.59	0.000000000000000E+000	260181	0.000000000000000E+000	0.000272126	0.000272126	0.0000000E+000	0.000000000000000E+000	-2.73088e-09
1	1	0	1	0	0	0	260331	0.0002	-0.010607	0.000199971	0.00100965	0.00100965	0	0.000280458	43	1.98593e-08	0.000000000000000E+000	4538.18	0.000000000000000E+000	260331	0.000000000000000E+000	0.000280458	0.000280458	0.0000000E+000	0.000000000000000E+000	-2.12109e-09
1	1	0	1	0	0	0	260481	0.0002	-0.00695274	0.000199955	0.00103964	0.00103964	0	0.00028879	43	1.99364e-08	0.000000000000000E+000	4597.49	0.000000000000000E+000	260481	0.000000000000000E+000	0.00028879	0.00028879	0.0000000E+000	0.000000000000000E+000	-1.39024e-09
1	1	0	1	0	0	0	260631	0.0002	-0.00453948	0.000199952	0.00106964	0.00106964	0	0.000297122	43	1.99797e-08	0.000000000000000E+000	4680.19	0.000000000000000E+000	260631	0.000000000000000E+000	0.000297122	0.000297122	0.0000000E+000	0.000000000000000E+000	-9.07676e-10
1	1	0	1	0	0	0	260781	0.0002	-0.00173291	0.000200009	0.00109964	0.00109964	0	0.000305454	43	2.00042e-08	0.000000000000000E+000	4753.07	0.000000000000000E+000	260781	0.000000000000000E+000	0.000305454	0.000305454	0.0000000E+000	0.000000000000000E+000	-3.46598e-10
1	1	0	1	0	0	0	260848	0.0002	-6.04269e-05	0.000199982	0.00111298	0.00111298	0	0.000309161	43	2.00077e-08	0.000000000000000E+000	4776.22	0.000000000000000E+000	260848	0.000000000000000E+000	0.000309161	0.000309161	0.0000000E+000	0.000000000000000E+000	-1.20843e-11