File: data_dir/600_B_immertest4/600_B_03_OCV_C03.mpt
EC-Lab ASCII FILE
Nb header lines : 48

Open Circuit Voltage

Run on channel : 3 (SN 13150)
User :
Electrode connection : standard
Potential control : Ewe
Ewe ctrl range : min = -1.00 V, max = 1.00 V
Ewe,I filtering : 5 Hz
Safety Limits :
	Do not start on E overload
Channel : Floating
Acquisition started on : 07/01/2024 16:51:05.709
Loaded Setting File :  C:\Users\mAtsuhitA\Desktop\Oyafuso\20240624_???????4\1540_A.mps
Saved on :
	File : 600_B_03_OCV_C03.mpr
	Directory : C:\Users\mAtsuhitA\Desktop\Oyafuso\20240624_???????4\600_B\
	Host : 192.109.209.100
Device : VSP-300 (SN 0834)
Address : 192.109.209.128
EC-Lab for windows v11.50 (software)
Internet server v11.50 (firmware)
Command interpretor v11.50 (firmware)
Electrode material :
Initial state :
Electrolyte :
Comments :
Cable : standard
Electrode surface area : 0.001 cm2
Characteristic mass : 0.001 g
Equivalent Weight : 0.000 g/eq.
Density : 0.000 g/cm3
Volume (V) : 0.001 cm3
Text export
   Mode : Standard
   Time format : Elapsed
Cycle Definition : Charge/Discharge alternance
tR (h:m:s)          0:10:0.0000
dER/dt (mV/h)       0.0
record              Ewe
dER (mV)            10.00
dtR (s)             30.0000
E range min (V)     -1.000
E range max (V)     1.000

mode	error	time/s	Ewe/V
3	0	7424.18	-0.32041
3	0	7424.23	-0.310326
3	0	7424.3	-0.30031
3	0	7424.49	-0.290243
3	0	7424.81	-0.280158
3	0	7425.47	-0.270117
3	0	7433.32	-0.260116
3	0	7463.32	-0.256401
3	0	7493.32	-0.254522
3	0	7523.32	-0.253446
3	0	7553.32	-0.252567
3	0	7583.32	-0.25206
3	0	7613.32	-0.251689
3	0	7643.32	-0.25141
3	0	7673.32	-0.251135
3	0	7703.32	-0.251059
3	0	7733.32	-0.250929
3	0	7763.32	-0.250899
3	0	7793.32	-0.250788
3	0	7823.32	-0.250704
3	0	7853.32	-0.250677
3	0	7883.32	-0.250525
3	0	7913.32	-0.250421
3	0	7943.32	-0.25033
3	0	7973.32	-0.250261
3	0	8003.32	-0.250104
3	0	8024.18	-0.250009