File: data_dir/600_B_immertest4/600_B_09_OCV_C03.mpt
EC-Lab ASCII FILE
Nb header lines : 48

Open Circuit Voltage

Run on channel : 3 (SN 13150)
User :
Electrode connection : standard
Potential control : Ewe
Ewe ctrl range : min = -1.00 V, max = 1.00 V
Ewe,I filtering : 5 Hz
Safety Limits :
	Do not start on E overload
Channel : Floating
Acquisition started on : 07/01/2024 16:51:05.709
Loaded Setting File :  C:\Users\mAtsuhitA\Desktop\Oyafuso\20240624_???????4\1540_A.mps
Saved on :
	File : 600_B_09_OCV_C03.mpr
	Directory : C:\Users\mAtsuhitA\Desktop\Oyafuso\20240624_???????4\600_B\
	Host : 192.109.209.100
Device : VSP-300 (SN 0834)
Address : 192.109.209.128
EC-Lab for windows v11.50 (software)
Internet server v11.50 (firmware)
Command interpretor v11.50 (firmware)
Electrode material :
Initial state :
Electrolyte :
Comments :
Cable : standard
Electrode surface area : 0.001 cm2
Characteristic mass : 0.001 g
Equivalent Weight : 0.000 g/eq.
Density : 0.000 g/cm3
Volume (V) : 0.001 cm3
Text export
   Mode : Standard
   Time format : Elapsed
Cycle Definition : Charge/Discharge alternance
tR (h:m:s)          5:00:0.0000
dER/dt (mV/h)       0.0
record              Ewe
dER (mV)            10.00
dtR (s)             30.0000
E range min (V)     -1.000
E range max (V)     1.000

mode	error	time/s	Ewe/V
3	0	260848	-0.00126246
3	0	260848	-0.0313785
3	0	260849	-0.0614803
3	0	260851	-0.0915201
3	0	260855	-0.121552
3	0	260861	-0.151584
3	0	260892	-0.181628
3	0	260982	-0.196532
3	0	261072	-0.203664
3	0	261162	-0.208445
3	0	261252	-0.212283
3	0	261342	-0.215143
3	0	261432	-0.217701
3	0	261522	-0.220103
3	0	261612	-0.222035
3	0	261702	-0.223833
3	0	261792	-0.225029
3	0	261882	-0.22682
3	0	261972	-0.22774
3	0	262062	-0.228797
3	0	262152	-0.229378
3	0	262242	-0.230103
3	0	262332	-0.230932
3	0	262422	-0.231558
3	0	262512	-0.232452
3	0	262602	-0.232983
3	0	262692	-0.233502
3	0	262782	-0.233983
3	0	262872	-0.234819
3	0	262962	-0.235316
3	0	263052	-0.235453
3	0	263142	-0.235808
3	0	263232	-0.235911
3	0	263322	-0.236243
3	0	263412	-0.23669
3	0	263502	-0.237042
3	0	263592	-0.237282
3	0	263682	-0.237412
3	0	263772	-0.237641
3	0	263862	-0.238206
3	0	263952	-0.238279
3	0	264042	-0.238493
3	0	264132	-0.238481
3	0	264222	-0.238714
3	0	264312	-0.239058
3	0	264402	-0.239459
3	0	264492	-0.239776
3	0	264582	-0.239871
3	0	264672	-0.240215
3	0	264762	-0.240868
3	0	264852	-0.240982
3	0	264942	-0.241001
3	0	265032	-0.241104
3	0	265122	-0.241242
3	0	265212	-0.241459
3	0	265302	-0.241761
3	0	265392	-0.242067
3	0	265482	-0.242193
3	0	265572	-0.242639
3	0	265662	-0.24314
3	0	265752	-0.242991
3	0	265842	-0.242956
3	0	265932	-0.242968
3	0	266022	-0.243056
3	0	266112	-0.243185
3	0	266202	-0.2433
3	0	266292	-0.243476
3	0	266382	-0.243334
3	0	266472	-0.243583
3	0	266562	-0.244052
3	0	266652	-0.244274
3	0	266742	-0.245098
3	0	266832	-0.245076
3	0	266922	-0.245427
3	0	267012	-0.247943
3	0	267102	-0.246714
3	0	267192	-0.246603
3	0	267282	-0.245935
3	0	267372	-0.246702
3	0	267462	-0.246698
3	0	267552	-0.246771
3	0	267642	-0.247229
3	0	267732	-0.247264
3	0	267822	-0.247409
3	0	267912	-0.247771
3	0	268002	-0.248096
3	0	268092	-0.248329
3	0	268182	-0.248749
3	0	268272	-0.248963
3	0	268362	-0.249257
3	0	268452	-0.249471
3	0	268542	-0.249921
3	0	268632	-0.250131
3	0	268722	-0.250211
3	0	268812	-0.250536
3	0	268902	-0.250807
3	0	268992	-0.251029
3	0	269082	-0.251323
3	0	269172	-0.251552
3	0	269262	-0.25154
3	0	269352	-0.251865
3	0	269442	-0.252018
3	0	269532	-0.252277
3	0	269622	-0.252457
3	0	269712	-0.25259
3	0	269802	-0.252923
3	0	269892	-0.253049
3	0	269982	-0.253163
3	0	270072	-0.253281
3	0	270162	-0.253503
3	0	270252	-0.253701
3	0	270342	-0.253858
3	0	270432	-0.254026
3	0	270522	-0.254114
3	0	270612	-0.254099
3	0	270702	-0.254221
3	0	270792	-0.254358
3	0	270882	-0.254522
3	0	270972	-0.254461
3	0	271062	-0.254637
3	0	271152	-0.254633
3	0	271242	-0.25545
3	0	271332	-0.254847
3	0	271422	-0.25521
3	0	271512	-0.255053
3	0	271602	-0.255221
3	0	271692	-0.255378
3	0	271782	-0.255408
3	0	271872	-0.25555
3	0	271962	-0.255645
3	0	272052	-0.255699
3	0	272142	-0.255958
3	0	272232	-0.255958
3	0	272322	-0.255916
3	0	272412	-0.255993
3	0	272502	-0.256183
3	0	272592	-0.256321
3	0	272682	-0.256462
3	0	272772	-0.256397
3	0	272862	-0.256615
3	0	272952	-0.256714
3	0	273042	-0.256814
3	0	273132	-0.257016
3	0	273222	-0.256768
3	0	273312	-0.257077
3	0	273402	-0.256989
3	0	273492	-0.25702
3	0	273582	-0.257302
3	0	273672	-0.25718
3	0	273762	-0.257325
3	0	273852	-0.257188
3	0	273942	-0.257428
3	0	274032	-0.257405
3	0	274123	-0.257428
3	0	274213	-0.257505
3	0	274303	-0.25768
3	0	274393	-0.257623
3	0	274483	-0.257535
3	0	274573	-0.257684
3	0	274663	-0.257799
3	0	274753	-0.257638
3	0	274843	-0.25768
3	0	274933	-0.257623
3	0	275023	-0.257741
3	0	275113	-0.257745
3	0	275203	-0.258032
3	0	275293	-0.257852
3	0	275383	-0.258009
3	0	275473	-0.258074
3	0	275563	-0.258089
3	0	275653	-0.258223
3	0	275743	-0.258093
3	0	275833	-0.258139
3	0	275923	-0.258196
3	0	276013	-0.258219
3	0	276103	-0.258307
3	0	276193	-0.258303
3	0	276283	-0.258337
3	0	276373	-0.258551
3	0	276463	-0.258383
3	0	276553	-0.258391
3	0	276643	-0.258593
3	0	276733	-0.258497
3	0	276823	-0.258478
3	0	276913	-0.258593
3	0	277003	-0.258643
3	0	277093	-0.258807
3	0	277183	-0.258937
3	0	277273	-0.259021
3	0	277363	-0.258662
3	0	277453	-0.258627
3	0	277543	-0.258509
3	0	277633	-0.258513
3	0	277723	-0.258589
3	0	277813	-0.258654
3	0	277903	-0.258559
3	0	277993	-0.258631
3	0	278083	-0.258921
3	0	278173	-0.258749
3	0	278263	-0.25886
3	0	278353	-0.258776
3	0	278443	-0.258769
3	0	278533	-0.258872
3	0	278623	-0.258788
3	0	278713	-0.25886
3	0	278803	-0.258853
3	0	278848	-0.258746