File: data_dir/600_B_immertest4/600_B_11_OCV_C03.mpt
EC-Lab ASCII FILE
Nb header lines : 48

Open Circuit Voltage

Run on channel : 3 (SN 13150)
User :
Electrode connection : standard
Potential control : Ewe
Ewe ctrl range : min = -1.00 V, max = 1.00 V
Ewe,I filtering : 5 Hz
Safety Limits :
	Do not start on E overload
Channel : Floating
Acquisition started on : 07/01/2024 16:51:05.709
Loaded Setting File :  C:\Users\mAtsuhitA\Desktop\Oyafuso\20240624_???????4\1540_A.mps
Saved on :
	File : 600_B_11_OCV_C03.mpr
	Directory : C:\Users\mAtsuhitA\Desktop\Oyafuso\20240624_???????4\600_B\
	Host : 192.109.209.100
Device : VSP-300 (SN 0834)
Address : 192.109.209.128
EC-Lab for windows v11.50 (software)
Internet server v11.50 (firmware)
Command interpretor v11.50 (firmware)
Electrode material :
Initial state :
Electrolyte :
Comments :
Cable : standard
Electrode surface area : 0.001 cm2
Characteristic mass : 0.001 g
Equivalent Weight : 0.000 g/eq.
Density : 0.000 g/cm3
Volume (V) : 0.001 cm3
Text export
   Mode : Standard
   Time format : Elapsed
Cycle Definition : Charge/Discharge alternance
tR (h:m:s)          0:10:0.0000
dER/dt (mV/h)       0.0
record              Ewe
dER (mV)            10.00
dtR (s)             30.0000
E range min (V)     -1.000
E range max (V)     1.000

mode	error	time/s	Ewe/V
3	0	279033	-0.258391
3	0	279034	-0.24839
3	0	279064	-0.246614
3	0	279094	-0.247855
3	0	279124	-0.248695
3	0	279154	-0.249165
3	0	279184	-0.249887
3	0	279214	-0.250131
3	0	279244	-0.250578
3	0	279274	-0.250929
3	0	279304	-0.251269
3	0	279334	-0.251559
3	0	279364	-0.25183
3	0	279394	-0.252235
3	0	279424	-0.252411
3	0	279454	-0.252556
3	0	279484	-0.252812
3	0	279514	-0.253052
3	0	279544	-0.253278
3	0	279574	-0.253469
3	0	279604	-0.25356
3	0	279633	-0.253805