File: data_dir/600_B_immertest4/600_B_07_OCV_C03.mpt
EC-Lab ASCII FILE
Nb header lines : 48

Open Circuit Voltage

Run on channel : 3 (SN 13150)
User :
Electrode connection : standard
Potential control : Ewe
Ewe ctrl range : min = -1.00 V, max = 1.00 V
Ewe,I filtering : 5 Hz
Safety Limits :
	Do not start on E overload
Channel : Floating
Acquisition started on : 07/01/2024 16:51:05.709
Loaded Setting File :  C:\Users\mAtsuhitA\Desktop\Oyafuso\20240624_???????4\1540_A.mps
Saved on :
	File : 600_B_07_OCV_C03.mpr
	Directory : C:\Users\mAtsuhitA\Desktop\Oyafuso\20240624_???????4\600_B\
	Host : 192.109.209.100
Device : VSP-300 (SN 0834)
Address : 192.109.209.128
EC-Lab for windows v11.50 (software)
Internet server v11.50 (firmware)
Command interpretor v11.50 (firmware)
Electrode material :
Initial state :
Electrolyte :
Comments :
Cable : standard
Electrode surface area : 0.001 cm2
Characteristic mass : 0.001 g
Equivalent Weight : 0.000 g/eq.
Density : 0.000 g/cm3
Volume (V) : 0.001 cm3
Text export
   Mode : Standard
   Time format : Elapsed
Cycle Definition : Charge/Discharge alternance
tR (h:m:s)          0:10:0.0000
dER/dt (mV/h)       0.0
record              Ewe
dER (mV)            10.00
dtR (s)             30.0000
E range min (V)     -1.000
E range max (V)     1.000

mode	error	time/s	Ewe/V
3	0	254682	-0.246915
3	0	254712	-0.240841
3	0	254742	-0.240841
3	0	254772	-0.240963
3	0	254802	-0.241028
3	0	254832	-0.241582
3	0	254862	-0.241853
3	0	254892	-0.241055
3	0	254922	-0.241215
3	0	254952	-0.241425
3	0	254982	-0.241433
3	0	255012	-0.241658
3	0	255042	-0.241666
3	0	255072	-0.241849
3	0	255102	-0.242078
3	0	255132	-0.242105
3	0	255162	-0.242235
3	0	255192	-0.242326
3	0	255222	-0.242502
3	0	255252	-0.242697
3	0	255282	-0.242903