File: data_dir/600_B_immertest4/600_B_05_OCV_C03.mpt
EC-Lab ASCII FILE
Nb header lines : 48

Open Circuit Voltage

Run on channel : 3 (SN 13150)
User :
Electrode connection : standard
Potential control : Ewe
Ewe ctrl range : min = -1.00 V, max = 1.00 V
Ewe,I filtering : 5 Hz
Safety Limits :
	Do not start on E overload
Channel : Floating
Acquisition started on : 07/01/2024 16:51:05.709
Loaded Setting File :  C:\Users\mAtsuhitA\Desktop\Oyafuso\20240624_???????4\1540_A.mps
Saved on :
	File : 600_B_05_OCV_C03.mpr
	Directory : C:\Users\mAtsuhitA\Desktop\Oyafuso\20240624_???????4\600_B\
	Host : 192.109.209.100
Device : VSP-300 (SN 0834)
Address : 192.109.209.128
EC-Lab for windows v11.50 (software)
Internet server v11.50 (firmware)
Command interpretor v11.50 (firmware)
Electrode material :
Initial state :
Electrolyte :
Comments :
Cable : standard
Electrode surface area : 0.001 cm2
Characteristic mass : 0.001 g
Equivalent Weight : 0.000 g/eq.
Density : 0.000 g/cm3
Volume (V) : 0.001 cm3
Text export
   Mode : Standard
   Time format : Elapsed
Cycle Definition : Charge/Discharge alternance
tR (h:m:s)          5:00:0.0000
dER/dt (mV/h)       0.0
record              Ewe
dER (mV)            10.00
dtR (s)             30.0000
E range min (V)     -1.000
E range max (V)     1.000

mode	error	time/s	Ewe/V
3	0	236503	-0.00150297
3	0	236504	-0.0316534
3	0	236505	-0.0616827
3	0	236507	-0.091711
3	0	236510	-0.121743
3	0	236519	-0.151775
3	0	236571	-0.180666
3	0	236661	-0.191907
3	0	236751	-0.197616
3	0	236841	-0.202019
3	0	236931	-0.205612
3	0	237021	-0.208483
3	0	237111	-0.211034
3	0	237201	-0.213149
3	0	237291	-0.215391
3	0	237381	-0.217235
3	0	237471	-0.219213
3	0	237561	-0.221084
3	0	237651	-0.222417
3	0	237741	-0.223536
3	0	237831	-0.22491
3	0	237921	-0.225357
3	0	238011	-0.225376
3	0	238101	-0.226533
3	0	238191	-0.226953
3	0	238281	-0.227828
3	0	238371	-0.228225
3	0	238461	-0.22934
3	0	238551	-0.229561
3	0	238641	-0.23052
3	0	238731	-0.231329
3	0	238821	-0.232032
3	0	238911	-0.231833
3	0	239001	-0.232162
3	0	239091	-0.23265
3	0	239181	-0.233166
3	0	239271	-0.233559
3	0	239361	-0.234052
3	0	239451	-0.234296
3	0	239541	-0.234724
3	0	239631	-0.234995
3	0	239721	-0.235445
3	0	239811	-0.235736
3	0	239901	-0.235972
3	0	239991	-0.235946
3	0	240081	-0.236305
3	0	240171	-0.236851
3	0	240261	-0.23703
3	0	240351	-0.237408
3	0	240441	-0.237202
3	0	240531	-0.237649
3	0	240621	-0.238229
3	0	240711	-0.238638
3	0	240801	-0.238806
3	0	240891	-0.23881
3	0	240981	-0.239042
3	0	241071	-0.239203
3	0	241161	-0.23934
3	0	241251	-0.239783
3	0	241341	-0.23965
3	0	241431	-0.23965
3	0	241521	-0.240008
3	0	241611	-0.240192
3	0	241701	-0.240608
3	0	241791	-0.240894
3	0	241881	-0.241093
3	0	241971	-0.241349
3	0	242061	-0.241666
3	0	242151	-0.241971
3	0	242241	-0.242746
3	0	242331	-0.242403
3	0	242421	-0.242437
3	0	242511	-0.242597
3	0	242601	-0.243663
3	0	242691	-0.243689
3	0	242781	-0.243724
3	0	242871	-0.243999
3	0	242961	-0.244308
3	0	243051	-0.244468
3	0	243141	-0.245121
3	0	243231	-0.245121
3	0	243321	-0.24456
3	0	243411	-0.24453
3	0	243501	-0.244346
3	0	243591	-0.244247
3	0	243681	-0.244533
3	0	243771	-0.244468
3	0	243861	-0.244808
3	0	243951	-0.24503
3	0	244041	-0.244446
3	0	244131	-0.244621
3	0	244221	-0.244484
3	0	244311	-0.244281
3	0	244401	-0.244449
3	0	244491	-0.244969
3	0	244581	-0.244564
3	0	244671	-0.244911
3	0	244761	-0.244827
3	0	244851	-0.245098
3	0	244941	-0.244911
3	0	245031	-0.245156
3	0	245121	-0.245461
3	0	245211	-0.245091
3	0	245301	-0.245095
3	0	245391	-0.244839
3	0	245481	-0.244782
3	0	245571	-0.244808
3	0	245661	-0.244969
3	0	245751	-0.244885
3	0	245841	-0.244995
3	0	245931	-0.24474
3	0	246021	-0.244915
3	0	246111	-0.244335
3	0	246201	-0.244236
3	0	246291	-0.244541
3	0	246381	-0.244468
3	0	246471	-0.244461
3	0	246561	-0.244648
3	0	246651	-0.244877
3	0	246741	-0.245034
3	0	246831	-0.244934
3	0	246921	-0.245114
3	0	247011	-0.245545
3	0	247101	-0.24548
3	0	247191	-0.245698
3	0	247281	-0.245847
3	0	247371	-0.245897
3	0	247461	-0.246065
3	0	247551	-0.246286
3	0	247641	-0.246576
3	0	247731	-0.246485
3	0	247821	-0.24629
3	0	247911	-0.246431
3	0	248001	-0.246546
3	0	248091	-0.246504
3	0	248181	-0.246221
3	0	248271	-0.246637
3	0	248361	-0.246389
3	0	248451	-0.246339
3	0	248541	-0.246435
3	0	248631	-0.246439
3	0	248721	-0.246553
3	0	248811	-0.246679
3	0	248901	-0.246973
3	0	248991	-0.246802
3	0	249081	-0.246908
3	0	249171	-0.246966
3	0	249261	-0.246996
3	0	249351	-0.247027
3	0	249441	-0.24692
3	0	249531	-0.246901
3	0	249621	-0.247103
3	0	249711	-0.247256
3	0	249801	-0.247798
3	0	249891	-0.247882
3	0	249981	-0.247577
3	0	250071	-0.247653
3	0	250161	-0.24747
3	0	250251	-0.247676
3	0	250341	-0.247737
3	0	250431	-0.247836
3	0	250521	-0.24776
3	0	250611	-0.248046
3	0	250701	-0.248363
3	0	250791	-0.249646
3	0	250881	-0.248844
3	0	250971	-0.248272
3	0	251061	-0.2486
3	0	251151	-0.248337
3	0	251241	-0.248657
3	0	251331	-0.248382
3	0	251421	-0.248191
3	0	251511	-0.247706
3	0	251601	-0.247852
3	0	251691	-0.247836
3	0	251781	-0.247863
3	0	251871	-0.24716
3	0	251961	-0.247107
3	0	252051	-0.247218
3	0	252141	-0.246931
3	0	252231	-0.247168
3	0	252321	-0.247034
3	0	252411	-0.246828
3	0	252501	-0.247046
3	0	252591	-0.247256
3	0	252681	-0.246767
3	0	252771	-0.246454
3	0	252861	-0.246832
3	0	252951	-0.246702
3	0	253041	-0.24674
3	0	253131	-0.246805
3	0	253221	-0.246695
3	0	253311	-0.246725
3	0	253401	-0.2465
3	0	253491	-0.246527
3	0	253581	-0.246656
3	0	253671	-0.247122
3	0	253761	-0.247527
3	0	253851	-0.246542
3	0	253941	-0.246171
3	0	254031	-0.246569
3	0	254121	-0.246278
3	0	254211	-0.246912
3	0	254301	-0.246882
3	0	254391	-0.247607
3	0	254481	-0.246973
3	0	254503	-0.247325