File: data_dir/600_B_immertest4/600_B_02_CV_C03.mpt
EC-Lab ASCII FILE
Nb header lines : 62

Cyclic Voltammetry

Run on channel : 3 (SN 13150)
User :
Electrode connection : standard
Potential control : Ewe
Ewe ctrl range : min = -1.00 V, max = 1.00 V
Ewe,I filtering : 5 Hz
Safety Limits :
	Do not start on E overload
Channel : Floating
Acquisition started on : 07/01/2024 16:51:05.709
Loaded Setting File :  C:\Users\mAtsuhitA\Desktop\Oyafuso\20240624_???????4\1540_A.mps
Saved on :
	File : 600_B_02_CV_C03.mpr
	Directory : C:\Users\mAtsuhitA\Desktop\Oyafuso\20240624_???????4\600_B\
	Host : 192.109.209.100
Device : VSP-300 (SN 0834)
Address : 192.109.209.128
EC-Lab for windows v11.50 (software)
Internet server v11.50 (firmware)
Command interpretor v11.50 (firmware)
Electrode material :
Initial state :
Electrolyte :
Comments :
Cable : standard
Electrode surface area : 0.001 cm2
Characteristic mass : 0.001 g
Equivalent Weight : 0.000 g/eq.
Density : 0.000 g/cm3
Volume (V) : 0.001 cm3
Text export
   Mode : Standard
   Time format : Elapsed
Cycle Definition : Charge/Discharge alternance
Ei (V)              0.000
vs.                 Eoc
dE/dt               10.000
dE/dt unit          mV/s
E1 (V)              -0.050
vs.                 Eoc
Step percent        50
N                   10
E range min (V)     -1.000
E range max (V)     1.000
I Range             Auto
I Range min         Unset
I Range max         Unset
I Range init        Unset
Bandwidth           8
E2 (V)              0.000
vs.                 Ref
nc cycles           2
Reverse Scan        1
Ef (V)              0.000
vs.                 Eoc

mode	ox/red	error	control changes	counter inc.	time/s	control/V	Ewe/V	<I>/mA	cycle number	(Q-Qo)/C	I Range	step time/s	P/W
2	1	0	1	0	7200.06	-0.323469	-0.249001	1.82345e-06	1	0.0000000E+000	45	7200.06	-4.54041e-10
2	0	0	1	0	7202.73	-0.350239	-0.349138	-0.000671898	1	-1.26125e-06	43	7202.73	2.34585e-07
2	0	0	1	0	7204.63	-0.369236	-0.368116	-0.000798894	1	-2.65659e-06	43	7204.63	2.94086e-07
2	0	0	1	0	7206.48	-0.359188	-0.359806	-0.000684491	1	-4.0711e-06	43	7206.48	2.46284e-07
2	0	0	1	0	7208.38	-0.340191	-0.340863	-0.000560626	1	-5.26482e-06	43	7208.38	1.91096e-07
2	0	0	1	0	7210.28	-0.321194	-0.321859	-0.000454977	1	-6.234e-06	43	7210.28	1.46438e-07
2	0	0	1	0	7212.18	-0.302198	-0.30287	-0.000334041	1	-6.98133e-06	43	7212.18	1.01171e-07
2	0	0	1	0	7214.08	-0.283201	-0.283866	-0.000207952	1	-7.50055e-06	43	7214.08	5.90304e-08
2	0	0	1	0	7215.98	-0.264204	-0.264888	-8.63024e-05	1	-7.78248e-06	43	7215.98	2.28604e-08
2	1	0	1	0	7219.48	-0.229211	-0.229936	0.000165449	1	-7.67578e-06	43	1.4498	-3.80426e-08
2	1	0	1	0	7221.38	-0.210214	-0.210948	0.000311151	1	-7.22424e-06	43	3.3494	-6.56368e-08
2	1	0	1	0	7223.28	-0.191217	-0.191964	0.000454428	1	-6.49532e-06	43	5.2492	-8.72337e-08
2	1	0	1	0	7225.18	-0.172221	-0.172989	0.000619347	1	-5.47376e-06	43	7.1488	-1.0714e-07
2	1	0	1	0	7227.08	-0.153224	-0.154027	0.000794574	1	-4.13653e-06	43	9.0484	-1.22386e-07
2	1	0	1	0	7228.98	-0.134228	-0.135037	0.000959662	1	-2.47424e-06	43	10.9482	-1.2959e-07
2	1	0	1	0	7231.28	-0.111232	-0.111982	0.00121398	1	1.54393e-08	42	13.2478	-1.35945e-07
2	1	0	1	0	7233.18	-0.0922351	-0.0930123	0.00140319	1	2.50594e-06	42	15.1474	-1.30514e-07
2	1	0	1	0	7235.08	-0.0732385	-0.0740352	0.00163571	1	5.39107e-06	42	17.047	-1.211e-07
2	1	0	1	0	7236.98	-0.0542418	-0.0550261	0.00189024	1	8.74537e-06	42	18.9468	-1.04012e-07
2	1	0	1	0	7238.88	-0.0352452	-0.036088	0.00216778	1	1.25746e-05	42	20.8464	-7.8231e-08
2	1	0	1	0	7240.78	-0.0162486	-0.0170621	0.00243577	1	1.69379e-05	42	22.746	-4.15595e-08
2	1	0	1	1	7242.53	-0.00130126	-0.000408967	0.00270428	1	2.14668e-05	42	24.501	-1.10596e-09
2	1	0	1	1	7244.43	-0.0202979	-0.0193103	0.00237004	1	2.6266e-05	42	26.4006	-4.57663e-08
2	1	0	1	1	7246.33	-0.0392945	-0.0383063	0.00209496	1	3.05053e-05	42	28.3004	-8.02503e-08
2	1	0	1	1	7248.23	-0.0582911	-0.0572904	0.0018589	1	3.42433e-05	42	30.2	-1.06497e-07
2	1	0	1	1	7250.13	-0.0772877	-0.0762836	0.00161871	1	3.75296e-05	42	32.0996	-1.23481e-07
2	1	0	1	1	7252.03	-0.0962844	-0.0952542	0.00137702	1	4.03858e-05	42	33.9994	-1.31167e-07
2	1	0	1	1	7253.93	-0.115281	-0.114271	0.00118795	1	4.28412e-05	42	35.899	-1.35748e-07
2	1	0	1	1	7255.83	-0.134278	-0.133248	0.00100495	1	4.49212e-05	42	37.7986	-1.33908e-07
2	1	0	1	1	7257.73	-0.153274	-0.152266	0.000821797	1	4.66533e-05	42	39.6984	-1.25132e-07
2	1	0	1	1	7259.63	-0.172271	-0.171224	0.00065497	1	4.80481e-05	42	41.598	-1.12147e-07
2	1	0	1	1	7261.53	-0.191267	-0.190225	0.000495032	1	4.91353e-05	42	43.4976	-9.41676e-08
2	1	0	1	1	7263.83	-0.214263	-0.213249	0.000302615	1	5.00598e-05	43	45.7972	-6.45323e-08
2	1	0	1	1	7265.73	-0.23326	-0.232233	0.000167237	1	5.05087e-05	43	47.6969	-3.88379e-08
2	1	0	1	1	7268.03	-0.256256	-0.255244	3.02589e-06	1	5.07089e-05	44	49.9964	-7.72341e-10
2	0	0	1	1	7270.33	-0.279252	-0.27821	-0.000156166	1	5.05396e-05	43	2.1996	4.34468e-08
2	0	0	1	1	7272.23	-0.298248	-0.297174	-0.000284338	1	5.01239e-05	43	4.0994	8.44979e-08
2	0	0	1	1	7274.13	-0.317245	-0.316184	-0.00040954	1	4.9467e-05	43	5.999	1.2949e-07
2	0	0	1	1	7276.03	-0.336242	-0.335141	-0.000538521	2	4.85693e-05	43	7.8986	1.80481e-07
2	0	0	1	1	7277.93	-0.355238	-0.354139	-0.000662495	2	4.74334e-05	43	9.7984	2.34615e-07
2	0	0	1	1	7279.78	-0.373185	-0.372616	-0.000788159	2	4.60893e-05	43	11.6486	2.93681e-07
2	0	0	1	1	7281.68	-0.354188	-0.354851	-0.000600434	2	4.47928e-05	43	13.5482	2.13065e-07
2	0	0	1	1	7283.57	-0.335192	-0.335843	-0.000477066	2	4.37474e-05	43	15.448	1.60219e-07
2	0	0	1	1	7285.47	-0.316195	-0.316856	-0.000362029	2	4.29403e-05	43	17.3476	1.14711e-07
2	0	0	1	1	7287.37	-0.297199	-0.297864	-0.000240098	2	4.23679e-05	43	19.2472	7.15165e-08
2	0	0	1	1	7289.27	-0.278202	-0.278915	-0.000119085	2	4.20251e-05	43	21.1469	3.32145e-08
2	1	0	1	1	7292.37	-0.247207	-0.247911	8.69501e-05	2	4.19553e-05	44	0.8499	-2.15559e-08
2	1	0	1	1	7294.67	-0.224212	-0.224955	0.000244863	2	4.23328e-05	43	3.1495	-5.50831e-08
2	1	0	1	1	7296.57	-0.205215	-0.205984	0.000391288	2	4.29336e-05	43	5.0491	-8.05991e-08
2	1	0	1	1	7298.47	-0.186218	-0.186997	0.000545099	2	4.38194e-05	43	6.9487	-1.01932e-07
2	1	0	1	1	7300.37	-0.167222	-0.168044	0.000709718	2	4.50079e-05	43	8.8485	-1.19264e-07
2	1	0	1	1	7302.27	-0.148225	-0.149059	0.000872716	2	4.65043e-05	43	10.7481	-1.30086e-07
2	1	0	1	1	7304.17	-0.129228	-0.130087	0.00105903	2	4.83346e-05	43	12.6477	-1.37766e-07
2	1	0	1	1	7306.47	-0.106233	-0.107009	0.00131083	2	5.10177e-05	42	14.9473	-1.40271e-07
2	1	0	1	1	7308.37	-0.0872351	-0.0880274	0.0014845	2	5.36559e-05	42	16.847	-1.30677e-07
2	1	0	1	1	7310.27	-0.0682393	-0.0690029	0.00172124	2	5.67026e-05	42	18.7467	-1.18771e-07
2	1	0	1	1	7312.17	-0.0492427	-0.050046	0.00194457	2	6.01902e-05	42	20.6463	-9.73179e-08
2	1	0	1	1	7314.07	-0.0302461	-0.0310748	0.00220007	2	6.41303e-05	42	22.5459	-6.83666e-08
2	1	0	1	1	7315.97	-0.0112495	-0.0120519	0.00247	2	6.85792e-05	42	24.4457	-2.97681e-08
2	1	0	1	0	7317.72	-0.00630037	-0.0053473	0.00252797	2	7.31e-05	42	26.2007	-1.35178e-08
2	1	0	1	0	7319.62	-0.025297	-0.0243149	0.00227558	2	7.76577e-05	42	28.1003	-5.53305e-08
2	1	0	1	0	7321.52	-0.0442936	-0.0433259	0.00200834	2	8.17214e-05	42	29.9999	-8.70132e-08
2	1	0	1	0	7323.42	-0.0632902	-0.0622979	0.0017642	2	8.53219e-05	42	31.8997	-1.09906e-07
2	1	0	1	0	7325.32	-0.0822868	-0.0812801	0.00155271	2	8.84712e-05	42	33.7993	-1.26205e-07
2	1	0	1	0	7327.22	-0.101283	-0.100292	0.00131267	2	9.11709e-05	42	35.6989	-1.3165e-07
2	1	0	1	0	7329.12	-0.12028	-0.119288	0.00112089	2	9.34809e-05	42	37.5987	-1.33708e-07
2	1	0	1	0	7331.02	-0.139277	-0.138261	0.000929507	2	9.54336e-05	42	39.4983	-1.28515e-07
2	1	0	1	0	7332.92	-0.158273	-0.157248	0.000755554	2	9.70364e-05	42	41.3979	-1.18809e-07
2	1	0	1	0	7334.82	-0.17727	-0.176241	0.000604897	2	9.83316e-05	42	43.2976	-1.06608e-07
2	1	0	1	0	7336.92	-0.198266	-0.197256	0.000434134	2	9.94235e-05	42	45.3972	-8.56354e-08
2	1	0	1	0	7339.02	-0.219262	-0.218252	0.000277344	2	0.000100172	43	47.4969	-6.05308e-08
2	1	0	1	0	7340.92	-0.238259	-0.237262	0.000140324	2	0.000100569	43	49.3965	-3.32936e-08
2	0	0	1	0	7343.22	-0.261255	-0.260222	-1.99265e-05	2	0.000100712	44	0.25	5.1853e-09
2	0	0	1	0	7345.52	-0.284251	-0.283204	-0.000172868	2	0.000100496	43	2.5496	4.8957e-08
2	0	0	1	0	7347.42	-0.303248	-0.302222	-0.000293875	2	0.000100053	43	4.4492	8.88157e-08
2	0	0	1	0	7349.32	-0.322244	-0.321205	-0.000419613	2	9.93785e-05	43	6.349	1.34782e-07
2	0	0	1	0	7351.22	-0.341241	-0.340167	-0.000544165	3	9.84652e-05	43	8.2486	1.85107e-07
2	0	0	1	0	7353.12	-0.360237	-0.359161	-0.000661796	3	9.73207e-05	43	10.1482	2.37691e-07
2	0	0	1	0	7354.97	-0.368186	-0.368822	-0.000672776	3	9.60089e-05	43	11.9985	2.48134e-07
2	0	0	1	0	7356.87	-0.349189	-0.349849	-0.000547628	3	9.48546e-05	43	13.8982	1.91587e-07
2	0	0	1	0	7358.77	-0.330193	-0.330863	-0.00042682	3	9.39283e-05	43	15.7978	1.41219e-07
2	0	0	1	0	7360.67	-0.311196	-0.31192	-0.000307717	3	9.32283e-05	43	17.6974	9.59832e-08
2	0	0	1	0	7362.57	-0.292199	-0.292893	-0.00018863	3	9.27541e-05	43	19.5972	5.52484e-08
2	0	0	1	0	7364.47	-0.273203	-0.273932	-6.86775e-05	3	9.25074e-05	43	21.4968	1.88129e-08
2	1	0	1	0	7367.98	-0.238109	-0.238842	0.000166183	3	9.26527e-05	43	2.0547	-3.96915e-08
2	1	0	1	0	7369.88	-0.219112	-0.219865	0.000298943	3	9.30944e-05	43	3.9543	-6.57272e-08
2	1	0	1	0	7371.78	-0.200116	-0.2009	0.000426873	3	9.3796e-05	43	5.8541	-8.57588e-08
2	1	0	1	0	7373.67	-0.181119	-0.181898	0.00058597	3	9.47671e-05	43	7.7537	-1.06587e-07
2	1	0	1	0	7375.57	-0.162123	-0.162964	0.000737716	3	9.60274e-05	43	9.6533	-1.20221e-07
2	1	0	1	0	7377.47	-0.143126	-0.143947	0.000909401	3	9.75906e-05	43	11.5529	-1.30905e-07
2	1	0	1	0	7379.37	-0.124129	-0.124975	0.00107994	3	9.94814e-05	43	13.4527	-1.34966e-07
2	1	0	1	0	7381.67	-0.101134	-0.101933	0.00132456	3	0.000102246	42	15.7523	-1.35017e-07
2	1	0	1	0	7383.57	-0.0821369	-0.0829006	0.0015373	3	0.000104963	42	17.6519	-1.27443e-07
2	1	0	1	0	7385.47	-0.0631403	-0.063894	0.00174988	3	0.000108078	42	19.5515	-1.11807e-07
2	1	0	1	0	7387.37	-0.0441436	-0.0449466	0.0019821	3	0.000111625	42	21.4513	-8.90887e-08
2	1	0	1	0	7389.27	-0.025147	-0.025964	0.00222854	3	0.000115645	42	23.3509	-5.78619e-08
2	1	0	1	0	7391.17	-0.0061504	-0.00694299	0.00249095	3	0.000120125	42	25.2505	-1.72947e-08
2	1	0	1	1	7392.92	-0.0112995	-0.0103217	0.00238445	3	0.000124485	42	26.9955	-2.46116e-08
2	1	0	1	1	7394.82	-0.0302961	-0.0292943	0.00210923	3	0.000128789	42	28.8953	-6.17885e-08
2	1	0	1	1	7396.72	-0.0492927	-0.048278	0.00188069	3	0.000132605	42	30.7949	-9.07961e-08
2	1	0	1	1	7398.62	-0.0682893	-0.0672772	0.0016591	3	0.000135968	42	32.6945	-1.1162e-07
2	1	0	1	1	7400.52	-0.0872855	-0.0862496	0.00144607	3	0.000138905	42	34.5942	-1.24723e-07
2	1	0	1	1	7402.41	-0.106283	-0.105266	0.00124411	3	0.000141451	42	36.4939	-1.30962e-07
2	1	0	1	1	7404.31	-0.125279	-0.12426	0.00105097	3	0.000143633	42	38.3935	-1.30594e-07
2	1	0	1	1	7406.21	-0.144276	-0.143255	0.000872515	3	0.000145464	42	40.2931	-1.24993e-07
2	1	0	1	1	7408.11	-0.163272	-0.162248	0.000708673	3	0.000146969	42	42.1929	-1.14981e-07
2	1	0	1	1	7410.01	-0.182269	-0.18122	0.000556895	3	0.000148166	42	44.0925	-1.0092e-07
2	1	0	1	1	7412.32	-0.205315	-0.20431	0.000375542	3	0.00014924	43	46.3971	-7.67269e-08
2	1	0	1	1	7414.22	-0.224312	-0.223317	0.00023811	3	0.000149822	43	48.2967	-5.3174e-08
2	1	0	1	1	7416.12	-0.243308	-0.242282	0.000107314	3	0.000150148	43	50.1965	-2.60003e-08
2	0	0	1	1	7418.42	-0.266304	-0.265302	-4.5365e-05	3	0.000150223	44	0.65	1.20354e-08
2	0	0	1	1	7420.72	-0.289299	-0.288253	-0.000191692	3	0.000149955	43	2.9495	5.52559e-08
2	0	0	1	1	7422.62	-0.308297	-0.307222	-0.000312768	3	0.000149474	43	4.8492	9.60892e-08
2	0	0	1	1	7424.13	-0.323469	-0.32238	-0.000411625	3	0.000148928	43	6.3643	1.327e-07