File: data_dir/1540_A_08_CP_C04.mpt
EC-Lab ASCII FILE
Nb header lines : 57

Chronopotentiometry

Run on channel : 4 (SN 13148)
User :
Electrode connection : standard
Potential control : Ewe
Ewe ctrl range : min = -1.00 V, max = 1.00 V
Ewe,I filtering : 5 Hz
Safety Limits :
	Do not start on E overload
Channel : Floating
Acquisition started on : 06/24/2024 21:42:04.718
Loaded Setting File :  NONE
Saved on :
	File : 1540_A_08_CP_C04.mpr
	Directory : C:\Users\mAtsuhitA\Desktop\Oyafuso\20240624_???????4\
	Host : 192.109.209.100
Device : VSP-300 (SN 0960)
Address : USB
EC-Lab for windows v11.50 (software)
Internet server v11.50 (firmware)
Command interpretor v11.50 (firmware)
Electrode material :
Initial state :
Electrolyte :
Comments :
Cable : standard
Electrode surface area : 0.001 cm2
Characteristic mass : 0.001 g
Equivalent Weight : 0.000 g/eq.
Density : 0.000 g/cm3
Volume (V) : 0.001 cm3
Text export
   Mode : Standard
   Time format : Elapsed
Cycle Definition : Charge/Discharge alternance
Is                  200.000
unit Is             nA
vs.                 <None>
ts (h:m:s)          1000:40:0.0000
EM (V)              0.000
dQM                 200.133
unit dQM            uA.h
record              Ewe
dEs (mV)            10.00
dts (s)             10.0000
E range min (V)     -1.000
E range max (V)     1.000
I Range             1 uA
Bandwidth           8
goto Ns'            0
nc cycles           0

mode	ox/red	error	control changes	Ns changes	counter inc.	Ns	time/s	control/mA	Ewe/V	I/mA	dQ/C	(Q-Qo)/C	half cycle	Q charge/discharge/mA.h	I Range	Energy charge/W.h	Energy discharge/W.h	Capacitance charge/uF	Capacitance discharge/uF	step time/s	Q discharge/mA.h	Q charge/mA.h	Capacity/mA.h	Efficiency/%	cycle number	P/W
1	1	0	0	0	0	0	49113.4	0.0002	-0.391397	-5.85007e-07	0.0000000E+000	0.0000000E+000	0	0.000000000000000E+000	43	0.000000000000000E+000	0.000000000000000E+000	0.000000000000000E+000	0.000000000000000E+000	49113.4	0.000000000000000E+000	0.000000000000000E+000	0.000000000000000E+000	0.0000000E+000	0.000000000000000E+000	2.2897e-10
1	1	0	0	0	0	0	49127.4	0.0002	-0.351345	0.000199825	2.78323e-06	2.78323e-06	0	7.73119e-07	43	2.75441e-10	0.000000000000000E+000	92.7075	0.000000000000000E+000	49127.4	0.000000000000000E+000	7.73119e-07	7.73119e-07	0.0000000E+000	0.000000000000000E+000	-7.02075e-08
1	1	0	0	0	0	0	49167.4	0.0002	-0.337314	0.000199798	1.07763e-05	1.07763e-05	0	2.99342e-06	43	1.03361e-09	0.000000000000000E+000	244.623	0.000000000000000E+000	49167.4	0.000000000000000E+000	2.99342e-06	2.99342e-06	0.0000000E+000	0.000000000000000E+000	-6.73947e-08
1	1	0	0	0	0	0	49207.4	0.0002	-0.329674	0.000199798	1.87689e-05	1.87689e-05	0	5.21359e-06	43	1.77151e-09	0.000000000000000E+000	363.087	0.000000000000000E+000	49207.4	0.000000000000000E+000	5.21359e-06	5.21359e-06	0.0000000E+000	0.000000000000000E+000	-6.58683e-08
1	1	0	0	0	0	0	49247.4	0.0002	-0.323538	0.00019981	2.67614e-05	2.67614e-05	0	7.43372e-06	43	2.49474e-09	0.000000000000000E+000	462.774	0.000000000000000E+000	49247.4	0.000000000000000E+000	7.43372e-06	7.43372e-06	0.0000000E+000	0.000000000000000E+000	-6.46461e-08
1	1	0	0	0	0	0	49287.4	0.0002	-0.318151	0.000199783	3.47536e-05	3.47536e-05	0	9.65378e-06	43	3.20545e-09	0.000000000000000E+000	549.765	0.000000000000000E+000	49287.4	0.000000000000000E+000	9.65378e-06	9.65378e-06	0.0000000E+000	0.000000000000000E+000	-6.35612e-08
1	1	0	0	0	0	0	49327.4	0.0002	-0.313062	0.000199844	4.27459e-05	4.27459e-05	0	1.18738e-05	43	3.90464e-09	0.000000000000000E+000	625.81	0.000000000000000E+000	49327.4	0.000000000000000E+000	1.18738e-05	1.18738e-05	0.0000000E+000	0.000000000000000E+000	-6.25636e-08
1	1	0	0	0	0	0	49367.4	0.0002	-0.308114	0.00019981	5.07382e-05	5.07382e-05	0	1.40939e-05	43	4.59282e-09	0.000000000000000E+000	692.644	0.000000000000000E+000	49367.4	0.000000000000000E+000	1.40939e-05	1.40939e-05	0.0000000E+000	0.000000000000000E+000	-6.15641e-08
1	1	0	0	0	0	0	49407.4	0.0002	-0.303207	0.000199833	5.87307e-05	5.87307e-05	0	1.63141e-05	43	5.2701e-09	0.000000000000000E+000	751.425	0.000000000000000E+000	49407.4	0.000000000000000E+000	1.63141e-05	1.63141e-05	0.0000000E+000	0.000000000000000E+000	-6.05908e-08
1	1	0	0	0	0	0	49447.4	0.0002	-0.298244	0.000199833	6.67235e-05	6.67235e-05	0	1.85343e-05	43	5.9364e-09	0.000000000000000E+000	802.712	0.000000000000000E+000	49447.4	0.000000000000000E+000	1.85343e-05	1.85343e-05	0.0000000E+000	0.000000000000000E+000	-5.95989e-08
1	1	0	0	0	0	0	49487.4	0.0002	-0.293109	0.00019981	7.47166e-05	7.47166e-05	0	2.07546e-05	43	6.5915e-09	0.000000000000000E+000	846.573	0.000000000000000E+000	49487.4	0.000000000000000E+000	2.07546e-05	2.07546e-05	0.0000000E+000	0.000000000000000E+000	-5.8566e-08
1	1	0	0	0	0	0	49527.4	0.0002	-0.287714	0.000199856	8.27098e-05	8.27098e-05	0	2.29749e-05	43	7.23484e-09	0.000000000000000E+000	883.155	0.000000000000000E+000	49527.4	0.000000000000000E+000	2.29749e-05	2.29749e-05	0.0000000E+000	0.000000000000000E+000	-5.75013e-08
1	1	0	0	0	0	0	49567.4	0.0002	-0.281949	0.000199802	9.07033e-05	9.07033e-05	0	2.51954e-05	43	7.86578e-09	0.000000000000000E+000	912.344	0.000000000000000E+000	49567.4	0.000000000000000E+000	2.51954e-05	2.51954e-05	0.0000000E+000	0.000000000000000E+000	-5.6334e-08
1	1	0	0	0	0	0	49607.4	0.0002	-0.275569	0.000199821	9.86969e-05	9.86969e-05	0	2.74158e-05	43	8.48312e-09	0.000000000000000E+000	932.883	0.000000000000000E+000	49607.4	0.000000000000000E+000	2.74158e-05	2.74158e-05	0.0000000E+000	0.000000000000000E+000	-5.50645e-08
1	1	0	0	0	0	0	49647.4	0.0002	-0.268521	0.000199833	0.00010669	0.00010669	0	2.96362e-05	43	9.08533e-09	0.000000000000000E+000	945.451	0.000000000000000E+000	49647.4	0.000000000000000E+000	2.96362e-05	2.96362e-05	0.0000000E+000	0.000000000000000E+000	-5.36592e-08
1	1	0	0	0	0	0	49687.4	0.0002	-0.260553	0.000199818	0.000114683	0.000114683	0	3.18564e-05	43	9.67057e-09	0.000000000000000E+000	949.252	0.000000000000000E+000	49687.4	0.000000000000000E+000	3.18564e-05	3.18564e-05	0.0000000E+000	0.000000000000000E+000	-5.2063e-08
1	1	0	0	0	0	0	49727.4	0.0002	-0.251111	0.000199844	0.000122675	0.000122675	0	3.40765e-05	43	1.02362e-08	0.000000000000000E+000	941.803	0.000000000000000E+000	49727.4	0.000000000000000E+000	3.40765e-05	3.40765e-05	0.0000000E+000	0.000000000000000E+000	-5.0183e-08
1	1	0	0	0	0	0	49767.4	0.0002	-0.240069	0.000199882	0.000130668	0.000130668	0	3.62966e-05	43	1.07787e-08	0.000000000000000E+000	924.769	0.000000000000000E+000	49767.4	0.000000000000000E+000	3.62966e-05	3.62966e-05	0.0000000E+000	0.000000000000000E+000	-4.79855e-08
1	1	0	0	0	0	0	49807.4	0.0002	-0.226843	0.000199802	0.00013866	0.00013866	0	3.85166e-05	43	1.12937e-08	0.000000000000000E+000	897.34	0.000000000000000E+000	49807.4	0.000000000000000E+000	3.85166e-05	3.85166e-05	0.0000000E+000	0.000000000000000E+000	-4.53238e-08
1	1	0	0	0	0	0	49847.4	0.0002	-0.210861	0.000199795	0.000146653	0.000146653	0	4.07369e-05	43	1.17757e-08	0.000000000000000E+000	860.107	0.000000000000000E+000	49847.4	0.000000000000000E+000	4.07369e-05	4.07369e-05	0.0000000E+000	0.000000000000000E+000	-4.21289e-08
1	1	0	0	0	0	0	49887.4	0.0002	-0.192561	0.000199818	0.000154646	0.000154646	0	4.29571e-05	43	1.22189e-08	0.000000000000000E+000	819.075	0.000000000000000E+000	49887.4	0.000000000000000E+000	4.29571e-05	4.29571e-05	0.0000000E+000	0.000000000000000E+000	-3.84771e-08
1	1	0	0	0	0	0	49927.4	0.0002	-0.172043	0.000199837	0.000162638	0.000162638	0	4.51773e-05	43	1.26182e-08	0.000000000000000E+000	776.973	0.000000000000000E+000	49927.4	0.000000000000000E+000	4.51773e-05	4.51773e-05	0.0000000E+000	0.000000000000000E+000	-3.43806e-08
1	1	0	0	0	0	0	49967.4	0.0002	-0.150239	0.000199825	0.000170631	0.000170631	0	4.73976e-05	43	1.297e-08	0.000000000000000E+000	738.255	0.000000000000000E+000	49967.4	0.000000000000000E+000	4.73976e-05	4.73976e-05	0.0000000E+000	0.000000000000000E+000	-3.00215e-08
1	1	0	0	0	0	0	50007.4	0.0002	-0.127892	0.00019981	0.000178624	0.000178624	0	4.96178e-05	43	1.32726e-08	0.000000000000000E+000	704.702	0.000000000000000E+000	50007.4	0.000000000000000E+000	4.96178e-05	4.96178e-05	0.0000000E+000	0.000000000000000E+000	-2.5554e-08
1	1	0	0	0	0	0	50047.4	0.0002	-0.105201	0.000199779	0.000186616	0.000186616	0	5.18379e-05	43	1.3525e-08	0.000000000000000E+000	675.742	0.000000000000000E+000	50047.4	0.000000000000000E+000	5.18379e-05	5.18379e-05	0.0000000E+000	0.000000000000000E+000	-2.1017e-08
1	1	0	0	0	0	0	50087.4	0.0002	-0.0827208	0.000199787	0.000194608	0.000194608	0	5.40579e-05	43	1.37273e-08	0.000000000000000E+000	651.636	0.000000000000000E+000	50087.4	0.000000000000000E+000	5.40579e-05	5.40579e-05	0.0000000E+000	0.000000000000000E+000	-1.65265e-08
1	1	0	0	0	0	0	50127.4	0.0002	-0.0603816	0.000199798	0.0002026	0.0002026	0	5.62779e-05	43	1.38798e-08	0.000000000000000E+000	631.184	0.000000000000000E+000	50127.4	0.000000000000000E+000	5.62779e-05	5.62779e-05	0.0000000E+000	0.000000000000000E+000	-1.20642e-08
1	1	0	0	0	0	0	50167.4	0.0002	-0.0382028	0.000199844	0.000210592	0.000210592	0	5.84979e-05	43	1.3983e-08	0.000000000000000E+000	613.679	0.000000000000000E+000	50167.4	0.000000000000000E+000	5.84979e-05	5.84979e-05	0.0000000E+000	0.000000000000000E+000	-7.63461e-09
1	1	0	0	0	0	0	50207.4	0.0002	-0.015917	0.000199768	0.000218584	0.000218584	0	6.07179e-05	43	1.40371e-08	0.000000000000000E+000	598.125	0.000000000000000E+000	50207.4	0.000000000000000E+000	6.07179e-05	6.07179e-05	0.0000000E+000	0.000000000000000E+000	-3.17971e-09
1	1	0	0	0	0	0	50235.3	0.0002	-7.9912e-05	0.000199791	0.000224155	0.000224155	0	6.22653e-05	43	1.40453e-08	0.000000000000000E+000	587.891	0.000000000000000E+000	50235.3	0.000000000000000E+000	6.22653e-05	6.22653e-05	0.0000000E+000	0.000000000000000E+000	-1.59657e-11