File: data_dir/1540_A_03_OCV_C04.mpt
EC-Lab ASCII FILE
Nb header lines : 48

Open Circuit Voltage

Run on channel : 4 (SN 13148)
User :
Electrode connection : standard
Potential control : Ewe
Ewe ctrl range : min = -1.00 V, max = 1.00 V
Ewe,I filtering : 5 Hz
Safety Limits :
	Do not start on E overload
Channel : Floating
Acquisition started on : 06/24/2024 21:42:04.718
Loaded Setting File :  NONE
Saved on :
	File : 1540_A_03_OCV_C04.mpr
	Directory : C:\Users\mAtsuhitA\Desktop\Oyafuso\20240624_???????4\
	Host : 192.109.209.100
Device : VSP-300 (SN 0960)
Address : USB
EC-Lab for windows v11.50 (software)
Internet server v11.50 (firmware)
Command interpretor v11.50 (firmware)
Electrode material :
Initial state :
Electrolyte :
Comments :
Cable : standard
Electrode surface area : 0.001 cm2
Characteristic mass : 0.001 g
Equivalent Weight : 0.000 g/eq.
Density : 0.000 g/cm3
Volume (V) : 0.001 cm3
Text export
   Mode : Standard
   Time format : Elapsed
Cycle Definition : Charge/Discharge alternance
tR (h:m:s)          0:10:0.0000
dER/dt (mV/h)       0.0
record              Ewe
dER (mV)            10.00
dtR (s)             30.0000
E range min (V)     -1.000
E range max (V)     1.000

mode	error	time/s	Ewe/V
3	0	7506.06	-0.458557
3	0	7506.17	-0.448543
3	0	7506.46	-0.438443
3	0	7507.27	-0.428431
3	0	7509.6	-0.418424
3	0	7539.6	-0.413334
3	0	7569.6	-0.415835
3	0	7599.6	-0.417251
3	0	7629.6	-0.418076
3	0	7659.6	-0.418584
3	0	7689.6	-0.418908
3	0	7719.6	-0.41908
3	0	7749.6	-0.419168
3	0	7779.6	-0.41926
3	0	7809.6	-0.419271
3	0	7839.6	-0.419183
3	0	7869.6	-0.419241
3	0	7899.6	-0.419126
3	0	7929.6	-0.419122
3	0	7959.6	-0.419057
3	0	7989.6	-0.418992
3	0	8019.6	-0.418939
3	0	8049.6	-0.418928
3	0	8079.6	-0.418817
3	0	8106.06	-0.418771