File: data_dir/1540_A_02_CV_C04.mpt
EC-Lab ASCII FILE
Nb header lines : 62

Cyclic Voltammetry

Run on channel : 4 (SN 13148)
User :
Electrode connection : standard
Potential control : Ewe
Ewe ctrl range : min = -1.00 V, max = 1.00 V
Ewe,I filtering : 5 Hz
Safety Limits :
	Do not start on E overload
Channel : Floating
Acquisition started on : 06/24/2024 21:42:04.718
Loaded Setting File :  NONE
Saved on :
	File : 1540_A_02_CV_C04.mpr
	Directory : C:\Users\mAtsuhitA\Desktop\Oyafuso\20240624_???????4\
	Host : 192.109.209.100
Device : VSP-300 (SN 0960)
Address : USB
EC-Lab for windows v11.50 (software)
Internet server v11.50 (firmware)
Command interpretor v11.50 (firmware)
Electrode material :
Initial state :
Electrolyte :
Comments :
Cable : standard
Electrode surface area : 0.001 cm2
Characteristic mass : 0.001 g
Equivalent Weight : 0.000 g/eq.
Density : 0.000 g/cm3
Volume (V) : 0.001 cm3
Text export
   Mode : Standard
   Time format : Elapsed
Cycle Definition : Charge/Discharge alternance
Ei (V)              0.000
vs.                 Eoc
dE/dt               10.000
dE/dt unit          mV/s
E1 (V)              -0.050
vs.                 Eoc
Step percent        50
N                   10
E range min (V)     -1.000
E range max (V)     1.000
I Range             Auto
I Range min         Unset
I Range max         Unset
I Range init        Unset
Bandwidth           8
E2 (V)              0.000
vs.                 Ref
nc cycles           2
Reverse Scan        1
Ef (V)              0.000
vs.                 Eoc

mode	ox/red	error	control changes	counter inc.	time/s	control/V	Ewe/V	<I>/mA	cycle number	(Q-Qo)/C	I Range	step time/s	P/W
2	0	0	1	0	7200.86	-0.467931	-0.46705	-0.000485882	1	0.0000000E+000	43	7200.86	2.26931e-07
2	0	0	1	0	7203.43	-0.493692	-0.492841	-0.000549112	1	-1.28671e-06	43	7203.43	2.70625e-07
2	0	0	1	0	7205.98	-0.500638	-0.501404	-0.000340706	1	-2.65275e-06	43	7205.98	1.70831e-07
2	0	0	1	0	7208.58	-0.474652	-0.475415	-0.000112182	1	-3.20314e-06	43	7208.58	5.33331e-08
2	1	0	1	0	7212.78	-0.432675	-0.433443	0.000136472	1	-3.16564e-06	43	1.9989	-5.91527e-08
2	1	0	1	0	7215.38	-0.406689	-0.407438	0.000304752	1	-2.5988e-06	43	4.5975	-1.24167e-07
2	1	0	1	0	7217.97	-0.380703	-0.381465	0.000507401	1	-1.55301e-06	43	7.1961	-1.93556e-07
2	1	0	1	0	7220.57	-0.354717	-0.355472	0.000754949	1	7.56024e-08	43	9.7947	-2.68364e-07
2	1	0	1	0	7223.17	-0.328731	-0.329464	0.00105557	1	2.41616e-06	43	12.3933	-3.47774e-07
2	1	0	1	0	7226.17	-0.298747	-0.299544	0.00146831	1	6.17462e-06	42	15.3917	-4.39823e-07
2	1	0	1	0	7228.77	-0.272761	-0.273561	0.00188181	1	1.05171e-05	42	17.9903	-5.14791e-07
2	1	0	1	0	7231.37	-0.246775	-0.247569	0.00233485	1	1.59878e-05	42	20.5889	-5.78035e-07
2	1	0	1	0	7233.97	-0.220789	-0.221572	0.00282844	1	2.26905e-05	42	23.1875	-6.26704e-07
2	1	0	1	0	7236.56	-0.194803	-0.195599	0.0033458	1	3.07047e-05	42	25.7861	-6.54434e-07
2	1	0	1	0	7239.16	-0.168817	-0.16963	0.00387834	1	4.00843e-05	42	28.3847	-6.57883e-07
2	1	0	1	0	7241.76	-0.142831	-0.143623	0.00443031	1	5.08764e-05	42	30.9833	-6.36296e-07
2	1	0	1	0	7244.36	-0.116845	-0.11765	0.00497252	1	6.30977e-05	42	33.5819	-5.85016e-07
2	1	0	1	0	7246.96	-0.0908594	-0.0916576	0.00552323	1	7.67436e-05	42	36.1805	-5.06246e-07
2	1	0	1	0	7249.56	-0.0648734	-0.065669	0.00605095	1	9.17883e-05	42	38.7791	-3.97359e-07
2	1	0	1	0	7252.16	-0.0388874	-0.03966	0.00655114	1	0.000108176	42	41.3777	-2.59818e-07
2	1	0	1	0	7254.75	-0.0129015	-0.0136996	0.00701618	1	0.000125821	42	43.9763	-9.6119e-08
2	1	0	1	1	7257.27	-0.0122518	-0.0113859	0.00645784	1	0.000143422	42	46.4953	-7.35283e-08
2	1	0	1	1	7259.87	-0.0382378	-0.0373448	0.00523673	1	0.000158528	42	49.0939	-1.95565e-07
2	1	0	1	1	7262.47	-0.0642238	-0.063313	0.00431619	1	0.000170889	42	51.6925	-2.73271e-07
2	1	0	1	1	7265.07	-0.0902097	-0.0892876	0.00358097	1	0.000181117	42	54.2911	-3.19736e-07
2	1	0	1	1	7267.67	-0.116196	-0.115271	0.00297343	1	0.000189607	42	56.8897	-3.42749e-07
2	1	0	1	1	7270.27	-0.142182	-0.141275	0.00245699	1	0.00019664	42	59.4883	-3.4711e-07
2	1	0	1	1	7272.86	-0.168168	-0.167248	0.00201809	1	0.000202439	42	62.0869	-3.37522e-07
2	1	0	1	1	7275.46	-0.194154	-0.193242	0.00163922	1	0.000207178	42	64.6855	-3.16767e-07
2	1	0	1	1	7278.06	-0.22014	-0.219229	0.00130874	1	0.000210997	42	67.2841	-2.86913e-07
2	1	0	1	1	7280.66	-0.246126	-0.245229	0.00102145	1	0.000214016	42	69.8827	-2.50489e-07
2	1	0	1	1	7283.26	-0.272112	-0.271212	0.000767004	1	0.000216332	42	72.4813	-2.08021e-07
2	1	0	1	1	7285.86	-0.298098	-0.29721	0.000540754	1	0.000218026	42	75.0799	-1.60718e-07
2	1	0	1	1	7288.86	-0.328081	-0.327188	0.00030853	1	0.000219298	43	78.0783	-1.00948e-07
2	1	0	1	1	7291.45	-0.354067	-0.353179	0.000123544	1	0.000219857	43	80.6769	-4.36332e-08
2	0	0	1	1	7294.45	-0.384051	-0.383169	-7.54795e-05	1	0.00021993	44	1.0994	2.89214e-08
2	0	0	1	1	7297.45	-0.414035	-0.413182	-0.00026588	1	0.000219421	43	4.0978	1.09857e-07
2	0	0	1	1	7300.05	-0.440021	-0.439164	-0.000426273	1	0.000218521	43	6.6964	1.87204e-07
2	0	0	1	1	7302.57	-0.465257	-0.464418	-0.000582013	2	0.000217248	43	9.22	2.70297e-07
2	0	0	1	1	7305.17	-0.491243	-0.490391	-0.000743506	2	0.000215526	43	11.8186	3.64608e-07
2	0	0	1	1	7307.72	-0.503137	-0.503923	-0.000534148	2	0.000213567	43	14.3628	2.69169e-07
2	0	0	1	1	7310.32	-0.477151	-0.477939	-8.53244e-05	2	0.00021286	43	16.9614	4.07799e-08
2	1	0	1	1	7313.71	-0.443169	-0.443925	0.000201718	2	0.000213081	43	2.4986	-8.95478e-08
2	1	0	1	1	7316.31	-0.417183	-0.417937	0.00037342	2	0.000213832	43	5.0972	-1.56066e-07
2	1	0	1	1	7318.91	-0.391197	-0.39194	0.000541895	2	0.000215021	43	7.6958	-2.1239e-07
2	1	0	1	1	7321.51	-0.365211	-0.365932	0.000721996	2	0.00021666	43	10.2944	-2.64201e-07
2	1	0	1	1	7324.11	-0.339225	-0.339946	0.0009198	2	0.000218789	43	12.893	-3.12682e-07
2	1	0	1	1	7327.11	-0.309242	-0.310015	0.00118289	2	0.000221926	42	15.8914	-3.66715e-07
2	1	0	1	1	7329.7	-0.283256	-0.284023	0.00144205	2	0.000225328	42	18.49	-4.09575e-07
2	1	0	1	1	7332.3	-0.25727	-0.258046	0.00173774	2	0.000229449	42	21.0886	-4.48416e-07
2	1	0	1	1	7334.9	-0.231284	-0.232044	0.00206758	2	0.000234384	42	23.6872	-4.79768e-07
2	1	0	1	1	7337.5	-0.205298	-0.206094	0.00243602	2	0.00024023	42	26.2858	-5.02049e-07
2	1	0	1	1	7340.1	-0.179312	-0.180096	0.00283786	2	0.000247074	42	28.8844	-5.11086e-07
2	1	0	1	1	7342.7	-0.153326	-0.154119	0.00326281	2	0.000254996	42	31.483	-5.02861e-07
2	1	0	1	1	7345.3	-0.12734	-0.128119	0.00371277	2	0.000264053	42	34.0816	-4.75675e-07
2	1	0	1	1	7347.9	-0.101354	-0.102132	0.00416598	2	0.000274295	42	36.6802	-4.25481e-07
2	1	0	1	1	7350.49	-0.0753677	-0.0761876	0.00462011	2	0.000285716	42	39.2788	-3.51995e-07
2	1	0	1	1	7353.09	-0.0493818	-0.0501903	0.00506027	2	0.000298302	42	41.8774	-2.53977e-07
2	1	0	1	1	7355.69	-0.0233958	-0.0242036	0.00548558	2	0.000312012	42	44.476	-1.32771e-07
2	1	0	1	0	7358.21	-0.00175746	-0.000884877	0.00574275	2	0.000326299	42	46.995	-5.08163e-09
2	1	0	1	0	7360.81	-0.0277434	-0.0268745	0.00456416	2	0.000339553	42	49.5936	-1.2266e-07
2	1	0	1	0	7363.41	-0.0537294	-0.052868	0.00375132	2	0.000350315	42	52.1922	-1.98325e-07
2	1	0	1	0	7366.01	-0.0797154	-0.0788488	0.00311603	2	0.000359204	42	54.7908	-2.45695e-07
2	1	0	1	0	7368.6	-0.105701	-0.104829	0.00259523	2	0.000366619	42	57.3894	-2.72056e-07
2	1	0	1	0	7371.2	-0.131687	-0.130849	0.00215669	2	0.000372777	42	59.988	-2.82202e-07
2	1	0	1	0	7373.8	-0.157673	-0.156804	0.00177903	2	0.000377878	42	62.5866	-2.78959e-07
2	1	0	1	0	7376.4	-0.183659	-0.182768	0.00145353	2	0.000382068	42	65.1852	-2.6566e-07
2	1	0	1	0	7379	-0.209645	-0.208761	0.0011658	2	0.000385461	42	67.7838	-2.43374e-07
2	1	0	1	0	7381.6	-0.235631	-0.234746	0.00091284	2	0.000388154	42	70.3824	-2.14285e-07
2	1	0	1	0	7384.2	-0.261617	-0.260768	0.000685963	2	0.000390225	42	72.981	-1.78877e-07
2	1	0	1	0	7386.79	-0.287603	-0.286719	0.000482362	2	0.000391739	42	75.5796	-1.38302e-07
2	1	0	1	0	7389.79	-0.317587	-0.316692	0.00027	2	0.000392869	43	78.578	-8.5507e-08
2	1	0	1	0	7392.39	-0.343573	-0.342727	9.69192e-05	2	0.000393343	43	81.1766	-3.32169e-08
2	0	0	1	0	7395.39	-0.373557	-0.372672	-9.27785e-05	2	0.000393352	44	1.4492	3.4576e-08
2	0	0	1	0	7398.39	-0.403541	-0.402669	-0.000278198	2	0.000392799	43	4.4476	1.12022e-07
2	0	0	1	0	7400.99	-0.429527	-0.428698	-0.000437504	2	0.00039187	43	7.0462	1.87557e-07
2	0	0	1	0	7403.59	-0.455513	-0.454656	-0.000598557	2	0.000390523	43	9.6448	2.72138e-07
2	0	0	1	0	7406.11	-0.480749	-0.479907	-0.000759667	3	0.000388809	43	12.1684	3.6457e-07
2	0	0	1	0	7408.71	-0.506735	-0.505904	-0.000933459	3	0.000386612	43	14.767	4.72241e-07
2	0	0	1	0	7411.25	-0.487645	-0.488419	-0.000270009	3	0.000385141	43	17.3112	1.31878e-07
2	1	0	1	0	7414.25	-0.457661	-0.458413	6.55779e-05	3	0.00038488	44	0.6496	-3.00618e-08
2	1	0	1	0	7417.25	-0.427678	-0.428448	0.000280139	3	0.000385406	43	3.648	-1.20025e-07
2	1	0	1	0	7419.85	-0.401692	-0.402407	0.000443447	3	0.000386348	43	6.2466	-1.78446e-07
2	1	0	1	0	7422.45	-0.375706	-0.376423	0.000605901	3	0.000387709	43	8.8452	-2.28075e-07
2	1	0	1	0	7425.04	-0.34972	-0.350439	0.000779201	3	0.000389507	43	11.4438	-2.73062e-07
2	1	0	1	0	7427.64	-0.323734	-0.324423	0.000970395	3	0.000391778	43	14.0424	-3.14819e-07
2	1	0	1	0	7430.64	-0.29375	-0.294515	0.00122298	3	0.000395048	42	17.0408	-3.60185e-07
2	1	0	1	0	7433.24	-0.267764	-0.268508	0.00146358	3	0.000398529	42	19.6394	-3.92985e-07
2	1	0	1	0	7435.84	-0.241778	-0.242543	0.00174072	3	0.000402685	42	22.238	-4.22199e-07
2	1	0	1	0	7438.44	-0.215792	-0.216586	0.00205094	3	0.000407605	42	24.8366	-4.44205e-07
2	1	0	1	0	7441.04	-0.189806	-0.190574	0.00239084	3	0.00041337	42	27.4352	-4.55633e-07
2	1	0	1	0	7443.63	-0.16382	-0.164594	0.00276034	3	0.000420056	42	30.0338	-4.54334e-07
2	1	0	1	0	7446.23	-0.137834	-0.13863	0.00314819	3	0.000427729	42	32.6324	-4.36434e-07
2	1	0	1	0	7448.83	-0.111848	-0.112619	0.00354563	3	0.000436427	42	35.231	-3.99307e-07
2	1	0	1	0	7451.43	-0.0858621	-0.0866604	0.0039461	3	0.000446169	42	37.8296	-3.4197e-07
2	1	0	1	0	7454.03	-0.0598761	-0.0606812	0.00434134	3	0.000456942	42	40.4282	-2.63438e-07
2	1	0	1	0	7456.63	-0.033891	-0.0347035	0.00471653	3	0.00046871	42	43.0267	-1.6368e-07
2	1	0	1	0	7459.23	-0.00790482	-0.00871591	0.0050537	3	0.000481409	42	45.6253	-4.40476e-08
2	1	0	1	1	7461.75	-0.0172491	-0.0163837	0.0043648	3	0.00049362	42	48.1444	-7.15115e-08
2	1	0	1	1	7464.34	-0.0432351	-0.0423727	0.00355509	3	0.000503849	42	50.743	-1.50639e-07
2	1	0	1	1	7466.94	-0.0692211	-0.0683325	0.00294524	3	0.000512259	42	53.3416	-2.01255e-07
2	1	0	1	1	7469.54	-0.095207	-0.0943179	0.0024547	3	0.000519257	42	55.9402	-2.31522e-07
2	1	0	1	1	7472.14	-0.121193	-0.120317	0.00204523	3	0.000525091	42	58.5388	-2.46076e-07
2	1	0	1	1	7474.74	-0.147179	-0.146292	0.00169617	3	0.000529939	42	61.1374	-2.48137e-07
2	1	0	1	1	7477.34	-0.173165	-0.172258	0.00139147	3	0.000533938	42	63.736	-2.39693e-07
2	1	0	1	1	7479.94	-0.199151	-0.198239	0.00112237	3	0.000537192	42	66.3346	-2.22498e-07
2	1	0	1	1	7482.53	-0.225137	-0.224237	0.000881842	3	0.000539787	42	68.9332	-1.97742e-07
2	1	0	1	1	7485.13	-0.251123	-0.250227	0.000668497	3	0.000541796	42	71.5318	-1.67276e-07
2	1	0	1	1	7487.73	-0.277109	-0.276212	0.000473742	3	0.000543275	42	74.1304	-1.30853e-07
2	1	0	1	1	7490.73	-0.307093	-0.306175	0.000269927	3	0.000544393	43	77.1288	-8.26449e-08
2	1	0	1	1	7493.33	-0.333079	-0.332138	0.000103553	3	0.000544877	43	79.7274	-3.4394e-08
2	0	0	1	1	7496.33	-0.363063	-0.362159	-8.07858e-05	3	0.000544914	44	1.2994	2.92573e-08
2	0	0	1	1	7499.32	-0.393046	-0.392141	-0.000261673	3	0.000544404	43	4.2977	1.02612e-07
2	0	0	1	1	7501.92	-0.419032	-0.418185	-0.000418801	3	0.00054352	43	6.8963	1.75136e-07
2	0	0	1	1	7504.52	-0.445018	-0.444148	-0.000578374	3	0.000542226	43	9.4949	2.56884e-07
2	0	0	1	1	7506.01	-0.459935	-0.458994	-0.000671586	3	0.000541296	43	10.9825	3.08254e-07